# E (eV)   ldos(E)   pdos(E)    pdos(E)    pdos(E)    pdos(E)    pdos(E)   
 -15.919  0.000E+00  0.000E+00  0.000E+00  0.000E+00  0.000E+00  0.000E+00
 -15.909  0.257E-01  0.256E-01  0.263E-06  0.190E-06  0.894E-05  0.887E-05
 -15.899  0.507E-01  0.506E-01  0.835E-06  0.688E-06  0.351E-04  0.335E-04
 -15.889  0.368E-01  0.367E-01  0.833E-06  0.725E-06  0.395E-04  0.372E-04
 -15.879  0.384E-01  0.383E-01  0.104E-05  0.929E-06  0.698E-04  0.657E-04
 -15.869  0.400E-01  0.398E-01  0.127E-05  0.115E-05  0.104E-03  0.976E-04
 -15.859  0.415E-01  0.413E-01  0.151E-05  0.138E-05  0.141E-03  0.133E-03
 -15.849  0.430E-01  0.427E-01  0.176E-05  0.162E-05  0.182E-03  0.172E-03
 -15.839  0.445E-01  0.440E-01  0.202E-05  0.188E-05  0.227E-03  0.214E-03
 -15.829  0.447E-01  0.442E-01  0.224E-05  0.209E-05  0.269E-03  0.254E-03
 -15.819  0.419E-01  0.413E-01  0.227E-05  0.213E-05  0.297E-03  0.280E-03
 -15.809  0.391E-01  0.385E-01  0.226E-05  0.212E-05  0.328E-03  0.309E-03
 -15.799  0.374E-01  0.367E-01  0.226E-05  0.213E-05  0.371E-03  0.349E-03
 -15.789  0.378E-01  0.370E-01  0.240E-05  0.226E-05  0.431E-03  0.405E-03
 -15.779  0.380E-01  0.371E-01  0.254E-05  0.239E-05  0.488E-03  0.460E-03
 -15.769  0.381E-01  0.371E-01  0.269E-05  0.253E-05  0.542E-03  0.513E-03
 -15.759  0.381E-01  0.370E-01  0.285E-05  0.267E-05  0.594E-03  0.564E-03
 -15.749  0.380E-01  0.367E-01  0.301E-05  0.282E-05  0.643E-03  0.614E-03
 -15.739  0.377E-01  0.364E-01  0.319E-05  0.298E-05  0.689E-03  0.661E-03
 -15.729  0.374E-01  0.359E-01  0.337E-05  0.314E-05  0.732E-03  0.707E-03
 -15.719  0.369E-01  0.353E-01  0.356E-05  0.331E-05  0.773E-03  0.751E-03
 -15.709  0.723E-01  0.690E-01  0.722E-05  0.668E-05  0.172E-02  0.162E-02
 -15.699  0.529E-01  0.504E-01  0.605E-05  0.549E-05  0.132E-02  0.121E-02
 -15.689  0.364E-01  0.345E-01  0.470E-05  0.418E-05  0.990E-03  0.866E-03
 -15.679  0.228E-01  0.215E-01  0.316E-05  0.274E-05  0.742E-03  0.584E-03
 -15.669  0.130E-01  0.120E-01  0.164E-05  0.134E-05  0.584E-03  0.382E-03
 -15.659  0.104E-01  0.956E-02  0.145E-05  0.116E-05  0.534E-03  0.327E-03
 -15.649  0.814E-02  0.738E-02  0.125E-05  0.971E-06  0.475E-03  0.273E-03
 -15.639  0.827E-02  0.743E-02  0.110E-05  0.853E-06  0.520E-03  0.320E-03
 -15.629  0.115E-01  0.103E-01  0.102E-05  0.835E-06  0.720E-03  0.516E-03
 -15.619  0.147E-01  0.131E-01  0.936E-06  0.825E-06  0.916E-03  0.718E-03
 -15.609  0.178E-01  0.158E-01  0.857E-06  0.823E-06  0.111E-02  0.928E-03
 -15.599  0.208E-01  0.184E-01  0.778E-06  0.828E-06  0.129E-02  0.114E-02
 -15.589  0.242E-01  0.213E-01  0.855E-06  0.945E-06  0.155E-02  0.140E-02
 -15.579  0.277E-01  0.241E-01  0.105E-05  0.114E-05  0.185E-02  0.167E-02
 -15.569  0.308E-01  0.267E-01  0.125E-05  0.134E-05  0.215E-02  0.195E-02
 -15.559  0.473E-01  0.359E-01  0.293E-05  0.423E-05  0.542E-02  0.593E-02
 -15.549  0.112E+00  0.874E-01  0.720E-05  0.939E-05  0.121E-01  0.128E-01
 -15.539  0.312E-01  0.267E-01  0.141E-05  0.143E-05  0.236E-02  0.214E-02
 -15.529  0.319E-01  0.273E-01  0.140E-05  0.140E-05  0.243E-02  0.219E-02
 -15.519  0.326E-01  0.278E-01  0.139E-05  0.136E-05  0.252E-02  0.225E-02
 -15.509  0.332E-01  0.282E-01  0.138E-05  0.133E-05  0.262E-02  0.233E-02
 -15.499  0.337E-01  0.285E-01  0.136E-05  0.129E-05  0.274E-02  0.241E-02
 -15.489  0.341E-01  0.287E-01  0.135E-05  0.126E-05  0.287E-02  0.251E-02
 -15.479  0.344E-01  0.288E-01  0.133E-05  0.123E-05  0.301E-02  0.262E-02
 -15.469  0.347E-01  0.288E-01  0.130E-05  0.120E-05  0.317E-02  0.275E-02
 -15.459  0.349E-01  0.287E-01  0.128E-05  0.118E-05  0.334E-02  0.288E-02
 -15.449  0.350E-01  0.285E-01  0.125E-05  0.115E-05  0.353E-02  0.304E-02
 -15.439  0.351E-01  0.282E-01  0.123E-05  0.113E-05  0.373E-02  0.320E-02
 -15.429  0.351E-01  0.278E-01  0.121E-05  0.112E-05  0.392E-02  0.338E-02
 -15.419  0.350E-01  0.273E-01  0.119E-05  0.111E-05  0.412E-02  0.356E-02
 -15.409  0.348E-01  0.267E-01  0.118E-05  0.111E-05  0.432E-02  0.375E-02
 -15.399  0.344E-01  0.259E-01  0.116E-05  0.111E-05  0.452E-02  0.394E-02
 -15.389  0.340E-01  0.251E-01  0.115E-05  0.112E-05  0.473E-02  0.415E-02
 -15.379  0.334E-01  0.241E-01  0.113E-05  0.113E-05  0.493E-02  0.436E-02
 -15.369  0.328E-01  0.230E-01  0.112E-05  0.115E-05  0.514E-02  0.458E-02
 -15.359  0.458E-01  0.328E-01  0.146E-05  0.154E-05  0.672E-02  0.631E-02
 -15.349  0.441E-01  0.315E-01  0.134E-05  0.143E-05  0.643E-02  0.613E-02
 -15.339  0.422E-01  0.301E-01  0.123E-05  0.133E-05  0.616E-02  0.595E-02
 -15.329  0.403E-01  0.286E-01  0.112E-05  0.123E-05  0.592E-02  0.576E-02
 -15.319  0.384E-01  0.270E-01  0.103E-05  0.114E-05  0.578E-02  0.561E-02
 -15.309  0.366E-01  0.253E-01  0.959E-06  0.106E-05  0.572E-02  0.550E-02
 -15.299  0.346E-01  0.235E-01  0.891E-06  0.983E-06  0.569E-02  0.538E-02
 -15.289  0.346E-01  0.233E-01  0.861E-06  0.958E-06  0.584E-02  0.550E-02
 -15.279  0.348E-01  0.232E-01  0.834E-06  0.937E-06  0.601E-02  0.564E-02
 -15.269  0.350E-01  0.230E-01  0.806E-06  0.915E-06  0.618E-02  0.579E-02
 -15.259  0.352E-01  0.229E-01  0.778E-06  0.893E-06  0.636E-02  0.593E-02
 -15.249  0.354E-01  0.228E-01  0.749E-06  0.871E-06  0.654E-02  0.608E-02
 -15.239  0.356E-01  0.227E-01  0.720E-06  0.848E-06  0.672E-02  0.623E-02
 -15.229  0.358E-01  0.226E-01  0.690E-06  0.825E-06  0.690E-02  0.638E-02
 -15.219  0.361E-01  0.224E-01  0.660E-06  0.802E-06  0.709E-02  0.654E-02
 -15.209  0.363E-01  0.223E-01  0.629E-06  0.778E-06  0.729E-02  0.670E-02
 -15.199  0.295E-01  0.183E-01  0.511E-06  0.662E-06  0.579E-02  0.537E-02
 -15.189  0.292E-01  0.179E-01  0.493E-06  0.644E-06  0.592E-02  0.546E-02
 -15.179  0.290E-01  0.174E-01  0.474E-06  0.626E-06  0.606E-02  0.556E-02
 -15.169  0.287E-01  0.168E-01  0.455E-06  0.608E-06  0.620E-02  0.566E-02
 -15.159  0.284E-01  0.163E-01  0.435E-06  0.588E-06  0.636E-02  0.576E-02
 -15.149  0.281E-01  0.157E-01  0.415E-06  0.569E-06  0.653E-02  0.587E-02
 -15.139  0.267E-01  0.145E-01  0.372E-06  0.514E-06  0.640E-02  0.571E-02
 -15.129  0.290E-01  0.157E-01  0.310E-06  0.413E-06  0.695E-02  0.639E-02
 -15.119  0.312E-01  0.168E-01  0.256E-06  0.325E-06  0.741E-02  0.703E-02
 -15.109  0.339E-01  0.181E-01  0.226E-06  0.272E-06  0.803E-02  0.779E-02
 -15.099  0.344E-01  0.181E-01  0.208E-06  0.243E-06  0.825E-02  0.805E-02
 -15.089  0.348E-01  0.180E-01  0.191E-06  0.216E-06  0.843E-02  0.830E-02
 -15.079  0.351E-01  0.180E-01  0.177E-06  0.191E-06  0.857E-02  0.853E-02
 -15.069  0.354E-01  0.180E-01  0.164E-06  0.170E-06  0.867E-02  0.877E-02
 -15.059  0.357E-01  0.180E-01  0.153E-06  0.151E-06  0.873E-02  0.899E-02
 -15.049  0.359E-01  0.179E-01  0.144E-06  0.135E-06  0.876E-02  0.920E-02
 -15.039  0.360E-01  0.179E-01  0.137E-06  0.121E-06  0.875E-02  0.941E-02
 -15.029  0.421E-01  0.200E-01  0.163E-06  0.156E-06  0.109E-01  0.112E-01
 -15.019  0.652E-01  0.323E-01  0.214E-06  0.188E-06  0.157E-01  0.172E-01
 -15.009  0.619E-01  0.297E-01  0.205E-06  0.188E-06  0.157E-01  0.165E-01
 -14.999  0.586E-01  0.272E-01  0.196E-06  0.186E-06  0.156E-01  0.158E-01
 -14.989  0.552E-01  0.248E-01  0.187E-06  0.182E-06  0.153E-01  0.151E-01
 -14.979  0.518E-01  0.226E-01  0.178E-06  0.177E-06  0.149E-01  0.144E-01
 -14.969  0.483E-01  0.205E-01  0.170E-06  0.171E-06  0.143E-01  0.136E-01
 -14.959  0.448E-01  0.185E-01  0.162E-06  0.163E-06  0.135E-01  0.129E-01
 -14.949  0.413E-01  0.167E-01  0.155E-06  0.154E-06  0.125E-01  0.121E-01
 -14.939  0.377E-01  0.150E-01  0.148E-06  0.144E-06  0.114E-01  0.113E-01
 -14.929  0.341E-01  0.135E-01  0.141E-06  0.132E-06  0.102E-01  0.105E-01
 -14.919  0.304E-01  0.120E-01  0.134E-06  0.119E-06  0.875E-02  0.963E-02
 -14.909  0.268E-01  0.108E-01  0.128E-06  0.105E-06  0.717E-02  0.882E-02
 -14.899  0.246E-01  0.989E-02  0.126E-06  0.987E-07  0.632E-02  0.835E-02
 -14.889  0.236E-01  0.923E-02  0.126E-06  0.100E-06  0.618E-02  0.818E-02
 -14.879  0.226E-01  0.859E-02  0.127E-06  0.101E-06  0.605E-02  0.799E-02
 -14.869  0.225E-01  0.828E-02  0.130E-06  0.104E-06  0.606E-02  0.815E-02
 -14.859  0.563E-01  0.199E-01  0.399E-06  0.316E-06  0.170E-01  0.195E-01
 -14.849  0.475E-01  0.163E-01  0.328E-06  0.268E-06  0.137E-01  0.174E-01
 -14.839  0.393E-01  0.132E-01  0.270E-06  0.229E-06  0.109E-01  0.151E-01
 -14.829  0.317E-01  0.104E-01  0.227E-06  0.199E-06  0.856E-02  0.127E-01
 -14.819  0.248E-01  0.805E-02  0.198E-06  0.177E-06  0.663E-02  0.101E-01
 -14.809  0.185E-01  0.607E-02  0.183E-06  0.164E-06  0.514E-02  0.733E-02
 -14.799  0.213E-01  0.694E-02  0.249E-06  0.215E-06  0.640E-02  0.797E-02
 -14.789  0.260E-01  0.830E-02  0.332E-06  0.285E-06  0.832E-02  0.938E-02
 -14.779  0.307E-01  0.955E-02  0.415E-06  0.359E-06  0.103E-01  0.108E-01
 -14.769  0.354E-01  0.107E-01  0.496E-06  0.438E-06  0.123E-01  0.123E-01
 -14.759  0.400E-01  0.117E-01  0.576E-06  0.522E-06  0.144E-01  0.139E-01
 -14.749  0.446E-01  0.126E-01  0.655E-06  0.611E-06  0.165E-01  0.155E-01
 -14.739  0.493E-01  0.134E-01  0.732E-06  0.704E-06  0.187E-01  0.171E-01
 -14.729  0.539E-01  0.141E-01  0.809E-06  0.803E-06  0.210E-01  0.188E-01
 -14.719  0.585E-01  0.147E-01  0.884E-06  0.906E-06  0.233E-01  0.205E-01
 -14.709  0.631E-01  0.151E-01  0.957E-06  0.101E-05  0.256E-01  0.223E-01
 -14.699  0.380E-01  0.108E-01  0.826E-06  0.663E-06  0.136E-01  0.135E-01
 -14.689  0.339E-01  0.913E-02  0.686E-06  0.622E-06  0.127E-01  0.121E-01
 -14.679  0.342E-01  0.907E-02  0.722E-06  0.655E-06  0.129E-01  0.123E-01
 -14.669  0.345E-01  0.900E-02  0.760E-06  0.687E-06  0.131E-01  0.124E-01
 -14.659  0.348E-01  0.893E-02  0.799E-06  0.719E-06  0.133E-01  0.125E-01
 -14.649  0.350E-01  0.884E-02  0.839E-06  0.752E-06  0.135E-01  0.127E-01
 -14.639  0.352E-01  0.875E-02  0.881E-06  0.785E-06  0.137E-01  0.128E-01
 -14.629  0.354E-01  0.864E-02  0.925E-06  0.817E-06  0.138E-01  0.129E-01
 -14.619  0.356E-01  0.853E-02  0.970E-06  0.851E-06  0.140E-01  0.130E-01
 -14.609  0.357E-01  0.841E-02  0.102E-05  0.884E-06  0.142E-01  0.131E-01
 -14.599  0.359E-01  0.827E-02  0.106E-05  0.917E-06  0.144E-01  0.132E-01
 -14.589  0.360E-01  0.813E-02  0.111E-05  0.951E-06  0.146E-01  0.133E-01
 -14.579  0.361E-01  0.798E-02  0.116E-05  0.984E-06  0.147E-01  0.134E-01
 -14.569  0.362E-01  0.782E-02  0.122E-05  0.102E-05  0.149E-01  0.134E-01
 -14.559  0.497E-01  0.118E-01  0.145E-05  0.116E-05  0.214E-01  0.164E-01
 -14.549  0.997E-01  0.234E-01  0.302E-05  0.229E-05  0.432E-01  0.330E-01
 -14.539  0.160E+00  0.323E-01  0.601E-05  0.458E-05  0.671E-01  0.610E-01
 -14.529  0.395E-01  0.765E-02  0.159E-05  0.128E-05  0.166E-01  0.153E-01
 -14.519  0.396E-01  0.750E-02  0.166E-05  0.134E-05  0.167E-01  0.154E-01
 -14.509  0.397E-01  0.736E-02  0.173E-05  0.140E-05  0.167E-01  0.156E-01
 -14.499  0.398E-01  0.723E-02  0.180E-05  0.145E-05  0.168E-01  0.158E-01
 -14.489  0.398E-01  0.710E-02  0.188E-05  0.151E-05  0.168E-01  0.159E-01
 -14.479  0.399E-01  0.697E-02  0.195E-05  0.157E-05  0.169E-01  0.161E-01
 -14.469  0.400E-01  0.685E-02  0.202E-05  0.163E-05  0.169E-01  0.162E-01
 -14.459  0.400E-01  0.674E-02  0.209E-05  0.169E-05  0.169E-01  0.164E-01
 -14.449  0.406E-01  0.673E-02  0.220E-05  0.177E-05  0.171E-01  0.168E-01
 -14.439  0.414E-01  0.675E-02  0.233E-05  0.186E-05  0.174E-01  0.172E-01
 -14.429  0.421E-01  0.676E-02  0.244E-05  0.195E-05  0.177E-01  0.177E-01
 -14.419  0.429E-01  0.676E-02  0.256E-05  0.203E-05  0.181E-01  0.181E-01
 -14.409  0.438E-01  0.675E-02  0.267E-05  0.212E-05  0.184E-01  0.186E-01
 -14.399  0.446E-01  0.674E-02  0.277E-05  0.221E-05  0.189E-01  0.190E-01
 -14.389  0.455E-01  0.671E-02  0.288E-05  0.230E-05  0.194E-01  0.195E-01
 -14.379  0.465E-01  0.668E-02  0.298E-05  0.238E-05  0.199E-01  0.199E-01
 -14.369  0.474E-01  0.664E-02  0.307E-05  0.247E-05  0.204E-01  0.203E-01
 -14.359  0.484E-01  0.659E-02  0.317E-05  0.256E-05  0.210E-01  0.208E-01
 -14.349  0.494E-01  0.654E-02  0.326E-05  0.265E-05  0.216E-01  0.212E-01
 -14.339  0.504E-01  0.647E-02  0.334E-05  0.274E-05  0.223E-01  0.216E-01
 -14.329  0.511E-01  0.638E-02  0.342E-05  0.281E-05  0.228E-01  0.220E-01
 -14.319  0.519E-01  0.630E-02  0.349E-05  0.289E-05  0.233E-01  0.223E-01
 -14.309  0.529E-01  0.626E-02  0.359E-05  0.298E-05  0.239E-01  0.227E-01
 -14.299  0.544E-01  0.630E-02  0.374E-05  0.311E-05  0.247E-01  0.234E-01
 -14.289  0.558E-01  0.633E-02  0.390E-05  0.323E-05  0.254E-01  0.241E-01
 -14.279  0.573E-01  0.636E-02  0.405E-05  0.336E-05  0.262E-01  0.247E-01
 -14.269  0.588E-01  0.639E-02  0.420E-05  0.348E-05  0.270E-01  0.254E-01
 -14.259  0.603E-01  0.642E-02  0.436E-05  0.360E-05  0.278E-01  0.261E-01
 -14.249  0.618E-01  0.645E-02  0.452E-05  0.373E-05  0.286E-01  0.267E-01
 -14.239  0.632E-01  0.648E-02  0.468E-05  0.385E-05  0.294E-01  0.274E-01
 -14.229  0.647E-01  0.650E-02  0.484E-05  0.398E-05  0.302E-01  0.280E-01
 -14.219  0.777E-01  0.762E-02  0.592E-05  0.481E-05  0.364E-01  0.337E-01
 -14.209  0.694E-01  0.663E-02  0.471E-05  0.405E-05  0.347E-01  0.280E-01
 -14.199  0.596E-01  0.560E-02  0.373E-05  0.335E-05  0.311E-01  0.229E-01
 -14.189  0.483E-01  0.450E-02  0.296E-05  0.271E-05  0.256E-01  0.182E-01
 -14.179  0.356E-01  0.335E-02  0.242E-05  0.212E-05  0.183E-01  0.140E-01
 -14.169  0.225E-01  0.222E-02  0.213E-05  0.163E-05  0.969E-02  0.106E-01
 -14.159  0.414E-01  0.443E-02  0.322E-05  0.262E-05  0.164E-01  0.206E-01
 -14.149  0.639E-01  0.639E-02  0.524E-05  0.420E-05  0.261E-01  0.314E-01
 -14.139  0.661E-01  0.628E-02  0.575E-05  0.449E-05  0.277E-01  0.321E-01
 -14.129  0.617E-01  0.565E-02  0.563E-05  0.429E-05  0.263E-01  0.298E-01
 -14.119  0.575E-01  0.505E-02  0.550E-05  0.409E-05  0.249E-01  0.275E-01
 -14.109  0.533E-01  0.448E-02  0.535E-05  0.389E-05  0.234E-01  0.253E-01
 -14.099  0.491E-01  0.394E-02  0.518E-05  0.369E-05  0.220E-01  0.232E-01
 -14.089  0.449E-01  0.344E-02  0.501E-05  0.348E-05  0.204E-01  0.210E-01
 -14.079  0.408E-01  0.298E-02  0.481E-05  0.327E-05  0.189E-01  0.190E-01
 -14.069  0.185E-01  0.145E-02  0.285E-05  0.168E-05  0.828E-02  0.881E-02
 -14.059  0.191E-01  0.147E-02  0.294E-05  0.176E-05  0.860E-02  0.904E-02
 -14.049  0.197E-01  0.148E-02  0.302E-05  0.185E-05  0.895E-02  0.930E-02
 -14.039  0.204E-01  0.149E-02  0.310E-05  0.193E-05  0.932E-02  0.956E-02
 -14.029  0.211E-01  0.150E-02  0.316E-05  0.202E-05  0.972E-02  0.984E-02
 -14.019  0.218E-01  0.151E-02  0.322E-05  0.210E-05  0.102E-01  0.101E-01
 -14.009  0.226E-01  0.151E-02  0.326E-05  0.219E-05  0.106E-01  0.105E-01
 -13.999  0.234E-01  0.150E-02  0.330E-05  0.228E-05  0.111E-01  0.108E-01
 -13.989  0.242E-01  0.149E-02  0.333E-05  0.236E-05  0.116E-01  0.111E-01
 -13.979  0.251E-01  0.148E-02  0.335E-05  0.245E-05  0.121E-01  0.115E-01
 -13.969  0.260E-01  0.147E-02  0.336E-05  0.254E-05  0.127E-01  0.119E-01
 -13.959  0.270E-01  0.145E-02  0.336E-05  0.263E-05  0.133E-01  0.122E-01
 -13.949  0.280E-01  0.143E-02  0.335E-05  0.272E-05  0.139E-01  0.127E-01
 -13.939  0.291E-01  0.140E-02  0.334E-05  0.282E-05  0.146E-01  0.131E-01
 -13.929  0.301E-01  0.137E-02  0.331E-05  0.291E-05  0.153E-01  0.135E-01
 -13.919  0.811E-01  0.356E-02  0.945E-05  0.787E-05  0.395E-01  0.381E-01
 -13.909  0.812E-01  0.340E-02  0.920E-05  0.787E-05  0.401E-01  0.376E-01
 -13.899  0.814E-01  0.323E-02  0.889E-05  0.786E-05  0.410E-01  0.372E-01
 -13.889  0.819E-01  0.305E-02  0.853E-05  0.786E-05  0.420E-01  0.368E-01
 -13.879  0.826E-01  0.286E-02  0.810E-05  0.787E-05  0.433E-01  0.364E-01
 -13.869  0.835E-01  0.266E-02  0.760E-05  0.787E-05  0.448E-01  0.360E-01
 -13.859  0.690E-01  0.196E-02  0.544E-05  0.645E-05  0.384E-01  0.287E-01
 -13.849  0.446E-01  0.122E-02  0.333E-05  0.428E-05  0.254E-01  0.180E-01
 -13.839  0.321E-01  0.101E-02  0.314E-05  0.332E-05  0.177E-01  0.134E-01
 -13.829  0.381E-01  0.134E-02  0.494E-05  0.417E-05  0.198E-01  0.170E-01
 -13.819  0.448E-01  0.162E-02  0.671E-05  0.516E-05  0.226E-01  0.206E-01
 -13.809  0.522E-01  0.185E-02  0.844E-05  0.628E-05  0.262E-01  0.242E-01
 -13.799  0.603E-01  0.204E-02  0.101E-04  0.755E-05  0.304E-01  0.278E-01
 -13.789  0.691E-01  0.217E-02  0.118E-04  0.895E-05  0.354E-01  0.315E-01
 -13.779  0.786E-01  0.226E-02  0.134E-04  0.105E-04  0.412E-01  0.351E-01
 -13.769  0.184E+00  0.477E-02  0.322E-04  0.249E-04  0.977E-01  0.819E-01
 -13.759  0.970E-01  0.249E-02  0.190E-04  0.140E-04  0.525E-01  0.420E-01
 -13.749  0.659E-01  0.175E-02  0.130E-04  0.875E-05  0.353E-01  0.288E-01
 -13.739  0.588E-01  0.155E-02  0.130E-04  0.835E-05  0.318E-01  0.255E-01
 -13.729  0.522E-01  0.136E-02  0.126E-04  0.782E-05  0.284E-01  0.224E-01
 -13.719  0.462E-01  0.118E-02  0.118E-04  0.717E-05  0.252E-01  0.197E-01
 -13.709  0.421E-01  0.105E-02  0.106E-04  0.642E-05  0.228E-01  0.182E-01
 -13.699  0.386E-01  0.937E-03  0.898E-05  0.554E-05  0.206E-01  0.171E-01
 -13.689  0.357E-01  0.831E-03  0.701E-05  0.458E-05  0.186E-01  0.163E-01
 -13.679  0.337E-01  0.739E-03  0.468E-05  0.356E-05  0.170E-01  0.160E-01
 -13.669  0.347E-01  0.735E-03  0.466E-05  0.357E-05  0.174E-01  0.166E-01
 -13.659  0.358E-01  0.732E-03  0.472E-05  0.362E-05  0.179E-01  0.171E-01
 -13.649  0.369E-01  0.727E-03  0.480E-05  0.369E-05  0.184E-01  0.178E-01
 -13.639  0.439E-01  0.750E-03  0.515E-05  0.393E-05  0.207E-01  0.225E-01
 -13.629  0.508E-01  0.777E-03  0.554E-05  0.421E-05  0.230E-01  0.270E-01
 -13.619  0.574E-01  0.815E-03  0.595E-05  0.453E-05  0.255E-01  0.312E-01
 -13.609  0.637E-01  0.852E-03  0.639E-05  0.488E-05  0.279E-01  0.350E-01
 -13.599  0.696E-01  0.886E-03  0.686E-05  0.526E-05  0.303E-01  0.384E-01
 -13.589  0.751E-01  0.918E-03  0.736E-05  0.568E-05  0.328E-01  0.414E-01
 -13.579  0.803E-01  0.949E-03  0.789E-05  0.613E-05  0.352E-01  0.441E-01
 -13.569  0.850E-01  0.977E-03  0.845E-05  0.660E-05  0.376E-01  0.464E-01
 -13.559  0.893E-01  0.100E-02  0.904E-05  0.712E-05  0.400E-01  0.483E-01
 -13.549  0.933E-01  0.103E-02  0.965E-05  0.766E-05  0.423E-01  0.499E-01
 -13.539  0.968E-01  0.105E-02  0.103E-04  0.823E-05  0.447E-01  0.511E-01
 -13.529  0.100E+00  0.107E-02  0.110E-04  0.884E-05  0.470E-01  0.519E-01
 -13.519  0.103E+00  0.109E-02  0.117E-04  0.948E-05  0.494E-01  0.523E-01
 -13.509  0.811E-01  0.864E-03  0.941E-05  0.767E-05  0.394E-01  0.409E-01
 -13.499  0.797E-01  0.819E-03  0.905E-05  0.739E-05  0.386E-01  0.403E-01
 -13.489  0.794E-01  0.779E-03  0.880E-05  0.725E-05  0.385E-01  0.401E-01
 -13.479  0.128E+00  0.118E-02  0.244E-04  0.159E-04  0.615E-01  0.655E-01
 -13.469  0.745E-01  0.696E-03  0.776E-05  0.638E-05  0.357E-01  0.381E-01
 -13.459  0.701E-01  0.649E-03  0.671E-05  0.560E-05  0.333E-01  0.362E-01
 -13.449  0.696E-01  0.618E-03  0.667E-05  0.556E-05  0.332E-01  0.358E-01
 -13.439  0.693E-01  0.588E-03  0.668E-05  0.555E-05  0.331E-01  0.355E-01
 -13.429  0.688E-01  0.556E-03  0.673E-05  0.557E-05  0.331E-01  0.352E-01
 -13.419  0.678E-01  0.519E-03  0.678E-05  0.558E-05  0.329E-01  0.344E-01
 -13.409  0.666E-01  0.484E-03  0.683E-05  0.557E-05  0.325E-01  0.336E-01
 -13.399  0.654E-01  0.449E-03  0.687E-05  0.555E-05  0.321E-01  0.328E-01
 -13.389  0.640E-01  0.415E-03  0.690E-05  0.552E-05  0.317E-01  0.319E-01
 -13.379  0.626E-01  0.382E-03  0.693E-05  0.547E-05  0.311E-01  0.310E-01
 -13.369  0.612E-01  0.353E-03  0.690E-05  0.540E-05  0.304E-01  0.304E-01
 -13.359  0.596E-01  0.327E-03  0.683E-05  0.531E-05  0.296E-01  0.297E-01
 -13.349  0.579E-01  0.301E-03  0.675E-05  0.520E-05  0.286E-01  0.290E-01
 -13.339  0.563E-01  0.278E-03  0.669E-05  0.508E-05  0.276E-01  0.284E-01
 -13.329  0.562E-01  0.260E-03  0.677E-05  0.510E-05  0.274E-01  0.285E-01
 -13.319  0.561E-01  0.241E-03  0.686E-05  0.511E-05  0.272E-01  0.287E-01
 -13.309  0.560E-01  0.221E-03  0.694E-05  0.512E-05  0.269E-01  0.288E-01
 -13.299  0.559E-01  0.201E-03  0.702E-05  0.513E-05  0.267E-01  0.290E-01
 -13.289  0.558E-01  0.180E-03  0.709E-05  0.514E-05  0.264E-01  0.292E-01
 -13.279  0.557E-01  0.158E-03  0.716E-05  0.515E-05  0.261E-01  0.294E-01
 -13.269  0.748E-01  0.167E-03  0.951E-05  0.699E-05  0.351E-01  0.396E-01
 -13.259  0.748E-01  0.158E-03  0.963E-05  0.704E-05  0.352E-01  0.394E-01
 -13.249  0.748E-01  0.149E-03  0.972E-05  0.708E-05  0.354E-01  0.392E-01
 -13.239  0.748E-01  0.140E-03  0.978E-05  0.712E-05  0.356E-01  0.390E-01
 -13.229  0.747E-01  0.131E-03  0.983E-05  0.716E-05  0.358E-01  0.388E-01
 -13.219  0.746E-01  0.122E-03  0.984E-05  0.720E-05  0.359E-01  0.386E-01
 -13.209  0.745E-01  0.114E-03  0.984E-05  0.723E-05  0.361E-01  0.383E-01
 -13.199  0.744E-01  0.105E-03  0.981E-05  0.726E-05  0.362E-01  0.381E-01
 -13.189  0.743E-01  0.968E-04  0.975E-05  0.729E-05  0.364E-01  0.378E-01
 -13.179  0.741E-01  0.885E-04  0.968E-05  0.732E-05  0.365E-01  0.375E-01
 -13.169  0.739E-01  0.802E-04  0.957E-05  0.735E-05  0.366E-01  0.372E-01
 -13.159  0.738E-01  0.720E-04  0.950E-05  0.740E-05  0.368E-01  0.369E-01
 -13.149  0.742E-01  0.638E-04  0.950E-05  0.753E-05  0.373E-01  0.368E-01
 -13.139  0.121E+00  0.660E-04  0.117E-04  0.110E-04  0.579E-01  0.632E-01
 -13.129  0.160E+00  0.638E-04  0.141E-04  0.148E-04  0.789E-01  0.815E-01
 -13.119  0.192E+00  0.569E-04  0.165E-04  0.189E-04  0.100E+00  0.914E-01
 -13.109  0.138E+00  0.443E-04  0.141E-04  0.140E-04  0.734E-01  0.646E-01
 -13.099  0.113E+00  0.370E-04  0.133E-04  0.118E-04  0.603E-01  0.528E-01
 -13.089  0.962E-01  0.308E-04  0.113E-04  0.101E-04  0.526E-01  0.436E-01
 -13.079  0.871E-01  0.254E-04  0.826E-05  0.906E-05  0.500E-01  0.370E-01
 -13.069  0.877E-01  0.221E-04  0.748E-05  0.879E-05  0.499E-01  0.377E-01
 -13.059  0.806E-01  0.185E-04  0.643E-05  0.760E-05  0.448E-01  0.358E-01
 -13.049  0.748E-01  0.161E-04  0.556E-05  0.655E-05  0.405E-01  0.343E-01
 -13.039  0.716E-01  0.148E-04  0.506E-05  0.572E-05  0.376E-01  0.340E-01
 -13.029  0.703E-01  0.144E-04  0.477E-05  0.504E-05  0.358E-01  0.345E-01
 -13.019  0.367E-02  0.397E-05  0.163E-06  0.293E-06  0.248E-02  0.118E-02
 -13.009  0.616E-02  0.591E-05  0.257E-06  0.434E-06  0.410E-02  0.205E-02
 -12.999  0.147E-01  0.120E-04  0.567E-06  0.883E-06  0.961E-02  0.511E-02
 -12.989  0.250E-01  0.200E-04  0.121E-05  0.150E-05  0.156E-01  0.946E-02
 -12.979  0.428E-01  0.349E-04  0.300E-05  0.267E-05  0.238E-01  0.189E-01
 -12.969  0.599E-01  0.527E-04  0.461E-05  0.379E-05  0.318E-01  0.280E-01
 -12.959  0.762E-01  0.734E-04  0.605E-05  0.487E-05  0.396E-01  0.365E-01
 -12.949  0.993E-01  0.104E-03  0.770E-05  0.647E-05  0.517E-01  0.474E-01
 -12.939  0.125E+00  0.139E-03  0.945E-05  0.817E-05  0.651E-01  0.597E-01
 -12.929  0.151E+00  0.179E-03  0.111E-04  0.983E-05  0.785E-01  0.719E-01
 -12.919  0.176E+00  0.222E-03  0.127E-04  0.114E-04  0.920E-01  0.842E-01
 -12.909  0.220E+00  0.289E-03  0.150E-04  0.143E-04  0.117E+00  0.102E+00
 -12.899  0.324E+00  0.453E-03  0.212E-04  0.195E-04  0.165E+00  0.158E+00
 -12.889  0.217E+00  0.330E-03  0.156E-04  0.135E-04  0.108E+00  0.109E+00
 -12.879  0.206E+00  0.344E-03  0.151E-04  0.127E-04  0.101E+00  0.105E+00
 -12.869  0.194E+00  0.361E-03  0.147E-04  0.120E-04  0.935E-01  0.999E-01
 -12.859  0.181E+00  0.380E-03  0.143E-04  0.113E-04  0.862E-01  0.947E-01
 -12.849  0.168E+00  0.403E-03  0.138E-04  0.106E-04  0.789E-01  0.888E-01
 -12.839  0.157E+00  0.432E-03  0.135E-04  0.102E-04  0.733E-01  0.835E-01
 -12.829  0.161E+00  0.486E-03  0.136E-04  0.106E-04  0.764E-01  0.841E-01
 -12.819  0.164E+00  0.546E-03  0.137E-04  0.109E-04  0.790E-01  0.840E-01
 -12.809  0.165E+00  0.613E-03  0.138E-04  0.113E-04  0.811E-01  0.832E-01
 -12.799  0.131E+00  0.616E-03  0.126E-04  0.968E-05  0.632E-01  0.677E-01
 -12.789  0.121E+00  0.662E-03  0.122E-04  0.940E-05  0.588E-01  0.615E-01
 -12.779  0.186E+00  0.135E-02  0.180E-04  0.166E-04  0.932E-01  0.913E-01
 -12.769  0.192E+00  0.159E-02  0.199E-04  0.149E-04  0.889E-01  0.101E+00
 -12.759  0.878E-01  0.674E-03  0.823E-05  0.656E-05  0.427E-01  0.444E-01
 -12.749  0.808E-01  0.648E-03  0.760E-05  0.605E-05  0.388E-01  0.413E-01
 -12.739  0.737E-01  0.626E-03  0.699E-05  0.553E-05  0.349E-01  0.381E-01
 -12.729  0.665E-01  0.608E-03  0.638E-05  0.501E-05  0.310E-01  0.348E-01
 -12.719  0.591E-01  0.594E-03  0.577E-05  0.449E-05  0.270E-01  0.315E-01
 -12.709  0.516E-01  0.584E-03  0.518E-05  0.396E-05  0.230E-01  0.279E-01
 -12.699  0.439E-01  0.578E-03  0.460E-05  0.343E-05  0.190E-01  0.243E-01
 -12.689  0.366E-01  0.578E-03  0.405E-05  0.293E-05  0.152E-01  0.208E-01
 -12.679  0.329E-01  0.592E-03  0.369E-05  0.270E-05  0.138E-01  0.184E-01
 -12.669  0.290E-01  0.611E-03  0.336E-05  0.247E-05  0.124E-01  0.159E-01
 -12.659  0.249E-01  0.635E-03  0.304E-05  0.224E-05  0.110E-01  0.133E-01
 -12.649  0.210E-01  0.664E-03  0.276E-05  0.204E-05  0.971E-02  0.107E-01
 -12.639  0.217E-01  0.705E-03  0.282E-05  0.210E-05  0.100E-01  0.110E-01
 -12.629  0.256E-01  0.101E-02  0.319E-05  0.228E-05  0.123E-01  0.123E-01
 -12.619  0.310E-01  0.133E-02  0.368E-05  0.260E-05  0.152E-01  0.145E-01
 -12.609  0.375E-01  0.162E-02  0.427E-05  0.304E-05  0.184E-01  0.175E-01
 -12.599  0.451E-01  0.187E-02  0.494E-05  0.359E-05  0.220E-01  0.213E-01
 -12.589  0.538E-01  0.208E-02  0.571E-05  0.426E-05  0.258E-01  0.259E-01
 -12.579  0.636E-01  0.227E-02  0.656E-05  0.504E-05  0.300E-01  0.313E-01
 -12.569  0.298E-01  0.110E-02  0.353E-05  0.273E-05  0.139E-01  0.148E-01
 -12.559  0.299E-01  0.115E-02  0.352E-05  0.280E-05  0.140E-01  0.147E-01
 -12.549  0.297E-01  0.119E-02  0.346E-05  0.288E-05  0.140E-01  0.144E-01
 -12.539  0.290E-01  0.123E-02  0.337E-05  0.295E-05  0.139E-01  0.139E-01
 -12.529  0.279E-01  0.127E-02  0.323E-05  0.300E-05  0.136E-01  0.131E-01
 -12.519  0.292E-01  0.145E-02  0.376E-05  0.312E-05  0.138E-01  0.139E-01
 -12.509  0.284E-01  0.153E-02  0.390E-05  0.309E-05  0.132E-01  0.136E-01
 -12.499  0.264E-01  0.154E-02  0.378E-05  0.290E-05  0.121E-01  0.127E-01
 -12.489  0.245E-01  0.155E-02  0.365E-05  0.270E-05  0.111E-01  0.119E-01
 -12.479  0.228E-01  0.156E-02  0.353E-05  0.250E-05  0.101E-01  0.111E-01
 -12.469  0.213E-01  0.157E-02  0.340E-05  0.230E-05  0.929E-02  0.105E-01
 -12.459  0.200E-01  0.158E-02  0.328E-05  0.210E-05  0.851E-02  0.990E-02
 -12.449  0.188E-01  0.159E-02  0.315E-05  0.189E-05  0.780E-02  0.942E-02
 -12.439  0.178E-01  0.160E-02  0.303E-05  0.168E-05  0.718E-02  0.902E-02
 -12.429  0.172E-01  0.163E-02  0.292E-05  0.151E-05  0.676E-02  0.877E-02
 -12.419  0.162E-01  0.166E-02  0.274E-05  0.146E-05  0.639E-02  0.819E-02
 -12.409  0.152E-01  0.168E-02  0.256E-05  0.142E-05  0.597E-02  0.754E-02
 -12.399  0.140E-01  0.170E-02  0.238E-05  0.139E-05  0.550E-02  0.682E-02
 -12.389  0.127E-01  0.172E-02  0.220E-05  0.136E-05  0.499E-02  0.604E-02
 -12.379  0.114E-01  0.173E-02  0.203E-05  0.135E-05  0.443E-02  0.520E-02
 -12.369  0.986E-02  0.173E-02  0.186E-05  0.134E-05  0.382E-02  0.429E-02
 -12.359  0.824E-02  0.174E-02  0.169E-05  0.134E-05  0.318E-02  0.333E-02
 -12.349  0.100E-01  0.249E-02  0.222E-05  0.182E-05  0.372E-02  0.381E-02
 -12.339  0.709E-02  0.208E-02  0.170E-05  0.141E-05  0.247E-02  0.253E-02
 -12.329  0.465E-02  0.165E-02  0.123E-05  0.104E-05  0.148E-02  0.151E-02
 -12.319  0.269E-02  0.119E-02  0.808E-06  0.695E-06  0.744E-03  0.753E-03
 -12.309  0.123E-02  0.711E-03  0.436E-06  0.382E-06  0.257E-03  0.256E-03
 -12.299  0.248E-03  0.203E-03  0.112E-06  0.101E-06  0.230E-04  0.210E-04
 -12.289  0.000E+00  0.000E+00  0.000E+00  0.000E+00  0.000E+00  0.000E+00
 -12.279  0.000E+00  0.000E+00  0.000E+00  0.000E+00  0.000E+00  0.000E+00
 -12.269  0.000E+00  0.000E+00  0.000E+00  0.000E+00  0.000E+00  0.000E+00
 -12.259  0.000E+00  0.000E+00  0.000E+00  0.000E+00  0.000E+00  0.000E+00
 -12.249  0.000E+00  0.000E+00  0.000E+00  0.000E+00  0.000E+00  0.000E+00
 -12.239  0.000E+00  0.000E+00  0.000E+00  0.000E+00  0.000E+00  0.000E+00
 -12.229  0.000E+00  0.000E+00  0.000E+00  0.000E+00  0.000E+00  0.000E+00
 -12.219  0.000E+00  0.000E+00  0.000E+00  0.000E+00  0.000E+00  0.000E+00
 -12.209  0.000E+00  0.000E+00  0.000E+00  0.000E+00  0.000E+00  0.000E+00
 -12.199  0.000E+00  0.000E+00  0.000E+00  0.000E+00  0.000E+00  0.000E+00
 -12.189  0.000E+00  0.000E+00  0.000E+00  0.000E+00  0.000E+00  0.000E+00
 -12.179  0.000E+00  0.000E+00  0.000E+00  0.000E+00  0.000E+00  0.000E+00
 -12.169  0.000E+00  0.000E+00  0.000E+00  0.000E+00  0.000E+00  0.000E+00
 -12.159  0.000E+00  0.000E+00  0.000E+00  0.000E+00  0.000E+00  0.000E+00
 -12.149  0.000E+00  0.000E+00  0.000E+00  0.000E+00  0.000E+00  0.000E+00
 -12.139  0.000E+00  0.000E+00  0.000E+00  0.000E+00  0.000E+00  0.000E+00
 -12.129  0.000E+00  0.000E+00  0.000E+00  0.000E+00  0.000E+00  0.000E+00
 -12.119  0.000E+00  0.000E+00  0.000E+00  0.000E+00  0.000E+00  0.000E+00
 -12.109  0.000E+00  0.000E+00  0.000E+00  0.000E+00  0.000E+00  0.000E+00
 -12.099  0.000E+00  0.000E+00  0.000E+00  0.000E+00  0.000E+00  0.000E+00
 -12.089  0.000E+00  0.000E+00  0.000E+00  0.000E+00  0.000E+00  0.000E+00
 -12.079  0.000E+00  0.000E+00  0.000E+00  0.000E+00  0.000E+00  0.000E+00
 -12.069  0.000E+00  0.000E+00  0.000E+00  0.000E+00  0.000E+00  0.000E+00
 -12.059  0.000E+00  0.000E+00  0.000E+00  0.000E+00  0.000E+00  0.000E+00
 -12.049  0.000E+00  0.000E+00  0.000E+00  0.000E+00  0.000E+00  0.000E+00
 -12.039  0.000E+00  0.000E+00  0.000E+00  0.000E+00  0.000E+00  0.000E+00
 -12.029  0.000E+00  0.000E+00  0.000E+00  0.000E+00  0.000E+00  0.000E+00
 -12.019  0.000E+00  0.000E+00  0.000E+00  0.000E+00  0.000E+00  0.000E+00
 -12.009  0.000E+00  0.000E+00  0.000E+00  0.000E+00  0.000E+00  0.000E+00
 -11.999  0.167E-02  0.166E-02  0.993E-05  0.757E-05  0.271E-06  0.720E-06
 -11.989  0.511E-02  0.497E-02  0.721E-04  0.631E-04  0.105E-05  0.228E-05
 -11.979  0.859E-02  0.822E-02  0.190E-03  0.172E-03  0.213E-05  0.397E-05
 -11.969  0.563E-02  0.530E-02  0.168E-03  0.154E-03  0.165E-05  0.271E-05
 -11.959  0.594E-02  0.552E-02  0.218E-03  0.202E-03  0.209E-05  0.306E-05
 -11.949  0.626E-02  0.573E-02  0.272E-03  0.252E-03  0.257E-05  0.343E-05
 -11.939  0.657E-02  0.593E-02  0.329E-03  0.307E-03  0.308E-05  0.382E-05
 -11.929  0.689E-02  0.613E-02  0.390E-03  0.365E-03  0.362E-05  0.423E-05
 -11.919  0.721E-02  0.632E-02  0.455E-03  0.426E-03  0.420E-05  0.467E-05
 -11.909  0.754E-02  0.651E-02  0.524E-03  0.491E-03  0.481E-05  0.512E-05
 -11.899  0.742E-02  0.632E-02  0.562E-03  0.528E-03  0.516E-05  0.528E-05
 -11.889  0.709E-02  0.595E-02  0.579E-03  0.544E-03  0.536E-05  0.531E-05
 -11.879  0.675E-02  0.559E-02  0.590E-03  0.555E-03  0.555E-05  0.533E-05
 -11.869  0.661E-02  0.540E-02  0.614E-03  0.577E-03  0.589E-05  0.551E-05
 -11.859  0.674E-02  0.543E-02  0.666E-03  0.626E-03  0.645E-05  0.589E-05
 -11.849  0.686E-02  0.544E-02  0.721E-03  0.678E-03  0.697E-05  0.625E-05
 -11.839  0.696E-02  0.544E-02  0.780E-03  0.732E-03  0.745E-05  0.659E-05
 -11.829  0.706E-02  0.541E-02  0.842E-03  0.790E-03  0.790E-05  0.690E-05
 -11.819  0.715E-02  0.537E-02  0.908E-03  0.851E-03  0.831E-05  0.718E-05
 -11.809  0.722E-02  0.531E-02  0.977E-03  0.915E-03  0.869E-05  0.744E-05
 -11.799  0.728E-02  0.523E-02  0.105E-02  0.982E-03  0.904E-05  0.768E-05
 -11.789  0.733E-02  0.513E-02  0.113E-02  0.105E-02  0.935E-05  0.789E-05
 -11.779  0.737E-02  0.502E-02  0.121E-02  0.113E-02  0.962E-05  0.807E-05
 -11.769  0.145E-01  0.980E-02  0.244E-02  0.225E-02  0.203E-04  0.167E-04
 -11.759  0.116E-01  0.738E-02  0.219E-02  0.199E-02  0.152E-04  0.126E-04
 -11.749  0.891E-02  0.534E-02  0.188E-02  0.168E-02  0.110E-04  0.920E-05
 -11.739  0.649E-02  0.368E-02  0.150E-02  0.130E-02  0.770E-05  0.640E-05
 -11.729  0.432E-02  0.241E-02  0.104E-02  0.864E-03  0.524E-05  0.421E-05
 -11.719  0.264E-02  0.158E-02  0.603E-03  0.449E-03  0.373E-05  0.278E-05
 -11.709  0.225E-02  0.129E-02  0.557E-03  0.401E-03  0.311E-05  0.227E-05
 -11.699  0.198E-02  0.111E-02  0.511E-03  0.358E-03  0.279E-05  0.200E-05
 -11.689  0.245E-02  0.156E-02  0.511E-03  0.367E-03  0.448E-05  0.322E-05
 -11.679  0.291E-02  0.200E-02  0.516E-03  0.384E-03  0.620E-05  0.448E-05
 -11.669  0.336E-02  0.241E-02  0.524E-03  0.408E-03  0.793E-05  0.575E-05
 -11.659  0.380E-02  0.281E-02  0.536E-03  0.441E-03  0.969E-05  0.705E-05
 -11.649  0.423E-02  0.318E-02  0.551E-03  0.481E-03  0.115E-04  0.838E-05
 -11.639  0.466E-02  0.353E-02  0.571E-03  0.529E-03  0.133E-04  0.972E-05
 -11.629  0.511E-02  0.388E-02  0.612E-03  0.595E-03  0.151E-04  0.111E-04
 -11.619  0.570E-02  0.422E-02  0.737E-03  0.713E-03  0.172E-04  0.126E-04
 -11.609  0.858E-02  0.509E-02  0.147E-02  0.195E-02  0.387E-04  0.262E-04
 -11.599  0.156E-01  0.858E-02  0.300E-02  0.395E-02  0.742E-04  0.499E-04
 -11.589  0.250E-01  0.149E-01  0.466E-02  0.524E-02  0.982E-04  0.684E-04
 -11.579  0.642E-02  0.442E-02  0.102E-02  0.946E-03  0.198E-04  0.146E-04
 -11.569  0.655E-02  0.450E-02  0.105E-02  0.962E-03  0.203E-04  0.150E-04
 -11.559  0.667E-02  0.458E-02  0.108E-02  0.980E-03  0.209E-04  0.155E-04
 -11.549  0.678E-02  0.463E-02  0.111E-02  0.998E-03  0.215E-04  0.159E-04
 -11.539  0.688E-02  0.468E-02  0.114E-02  0.102E-02  0.222E-04  0.164E-04
 -11.529  0.696E-02  0.471E-02  0.117E-02  0.104E-02  0.230E-04  0.169E-04
 -11.519  0.702E-02  0.472E-02  0.120E-02  0.106E-02  0.239E-04  0.174E-04
 -11.509  0.708E-02  0.472E-02  0.123E-02  0.108E-02  0.248E-04  0.179E-04
 -11.499  0.712E-02  0.471E-02  0.126E-02  0.111E-02  0.258E-04  0.184E-04
 -11.489  0.714E-02  0.468E-02  0.128E-02  0.113E-02  0.268E-04  0.190E-04
 -11.479  0.717E-02  0.464E-02  0.131E-02  0.116E-02  0.280E-04  0.196E-04
 -11.469  0.719E-02  0.460E-02  0.135E-02  0.119E-02  0.291E-04  0.203E-04
 -11.459  0.720E-02  0.454E-02  0.138E-02  0.123E-02  0.303E-04  0.210E-04
 -11.449  0.720E-02  0.446E-02  0.142E-02  0.127E-02  0.316E-04  0.217E-04
 -11.439  0.720E-02  0.437E-02  0.146E-02  0.132E-02  0.328E-04  0.224E-04
 -11.429  0.719E-02  0.427E-02  0.150E-02  0.136E-02  0.341E-04  0.232E-04
 -11.419  0.716E-02  0.415E-02  0.154E-02  0.141E-02  0.354E-04  0.239E-04
 -11.409  0.713E-02  0.402E-02  0.158E-02  0.147E-02  0.367E-04  0.247E-04
 -11.399  0.709E-02  0.388E-02  0.163E-02  0.152E-02  0.380E-04  0.255E-04
 -11.389  0.705E-02  0.372E-02  0.168E-02  0.158E-02  0.394E-04  0.263E-04
 -11.379  0.106E-01  0.576E-02  0.245E-02  0.231E-02  0.569E-04  0.399E-04
 -11.369  0.104E-01  0.561E-02  0.239E-02  0.226E-02  0.549E-04  0.390E-04
 -11.359  0.100E-01  0.542E-02  0.233E-02  0.221E-02  0.532E-04  0.381E-04
 -11.349  0.966E-02  0.518E-02  0.225E-02  0.215E-02  0.518E-04  0.370E-04
 -11.339  0.920E-02  0.488E-02  0.216E-02  0.208E-02  0.506E-04  0.358E-04
 -11.329  0.873E-02  0.455E-02  0.207E-02  0.202E-02  0.502E-04  0.348E-04
 -11.319  0.820E-02  0.417E-02  0.199E-02  0.196E-02  0.502E-04  0.338E-04
 -11.309  0.814E-02  0.407E-02  0.199E-02  0.200E-02  0.520E-04  0.344E-04
 -11.299  0.822E-02  0.404E-02  0.203E-02  0.205E-02  0.543E-04  0.355E-04
 -11.289  0.830E-02  0.402E-02  0.207E-02  0.211E-02  0.565E-04  0.365E-04
 -11.279  0.838E-02  0.401E-02  0.210E-02  0.217E-02  0.588E-04  0.376E-04
 -11.269  0.846E-02  0.399E-02  0.214E-02  0.223E-02  0.611E-04  0.387E-04
 -11.259  0.854E-02  0.397E-02  0.218E-02  0.229E-02  0.633E-04  0.398E-04
 -11.249  0.863E-02  0.396E-02  0.222E-02  0.235E-02  0.656E-04  0.409E-04
 -11.239  0.872E-02  0.394E-02  0.225E-02  0.242E-02  0.679E-04  0.420E-04
 -11.229  0.882E-02  0.393E-02  0.229E-02  0.248E-02  0.702E-04  0.431E-04
 -11.219  0.892E-02  0.392E-02  0.233E-02  0.255E-02  0.725E-04  0.442E-04
 -11.209  0.901E-02  0.391E-02  0.237E-02  0.261E-02  0.748E-04  0.453E-04
 -11.199  0.735E-02  0.309E-02  0.192E-02  0.222E-02  0.676E-04  0.394E-04
 -11.189  0.727E-02  0.298E-02  0.193E-02  0.226E-02  0.695E-04  0.399E-04
 -11.179  0.720E-02  0.286E-02  0.193E-02  0.229E-02  0.714E-04  0.404E-04
 -11.169  0.712E-02  0.274E-02  0.194E-02  0.233E-02  0.734E-04  0.410E-04
 -11.159  0.703E-02  0.261E-02  0.194E-02  0.236E-02  0.754E-04  0.415E-04
 -11.149  0.695E-02  0.248E-02  0.195E-02  0.240E-02  0.775E-04  0.420E-04
 -11.139  0.678E-02  0.233E-02  0.193E-02  0.241E-02  0.783E-04  0.420E-04
 -11.129  0.688E-02  0.262E-02  0.192E-02  0.223E-02  0.710E-04  0.420E-04
 -11.119  0.723E-02  0.305E-02  0.199E-02  0.208E-02  0.656E-04  0.439E-04
 -11.109  0.765E-02  0.350E-02  0.207E-02  0.197E-02  0.616E-04  0.465E-04
 -11.099  0.786E-02  0.365E-02  0.214E-02  0.197E-02  0.625E-04  0.489E-04
 -11.089  0.792E-02  0.370E-02  0.216E-02  0.195E-02  0.627E-04  0.503E-04
 -11.079  0.798E-02  0.376E-02  0.219E-02  0.193E-02  0.628E-04  0.517E-04
 -11.069  0.805E-02  0.381E-02  0.221E-02  0.191E-02  0.629E-04  0.531E-04
 -11.059  0.811E-02  0.386E-02  0.224E-02  0.190E-02  0.630E-04  0.545E-04
 -11.049  0.818E-02  0.391E-02  0.227E-02  0.188E-02  0.630E-04  0.559E-04
 -11.039  0.825E-02  0.396E-02  0.230E-02  0.187E-02  0.631E-04  0.573E-04
 -11.029  0.832E-02  0.401E-02  0.232E-02  0.186E-02  0.631E-04  0.587E-04
 -11.019  0.961E-02  0.430E-02  0.274E-02  0.242E-02  0.793E-04  0.681E-04
 -11.009  0.153E-01  0.735E-02  0.438E-02  0.335E-02  0.105E-03  0.103E-03
 -10.999  0.142E-01  0.675E-02  0.410E-02  0.315E-02  0.104E-03  0.986E-04
 -10.989  0.132E-01  0.619E-02  0.384E-02  0.296E-02  0.102E-03  0.939E-04
 -10.979  0.122E-01  0.567E-02  0.358E-02  0.278E-02  0.100E-03  0.894E-04
 -10.969  0.113E-01  0.517E-02  0.334E-02  0.261E-02  0.977E-04  0.851E-04
 -10.959  0.104E-01  0.471E-02  0.310E-02  0.245E-02  0.947E-04  0.809E-04
 -10.949  0.962E-02  0.428E-02  0.288E-02  0.230E-02  0.913E-04  0.769E-04
 -10.939  0.886E-02  0.389E-02  0.266E-02  0.215E-02  0.874E-04  0.730E-04
 -10.929  0.815E-02  0.352E-02  0.245E-02  0.202E-02  0.832E-04  0.693E-04
 -10.919  0.749E-02  0.319E-02  0.226E-02  0.190E-02  0.785E-04  0.657E-04
 -10.909  0.689E-02  0.289E-02  0.207E-02  0.179E-02  0.734E-04  0.623E-04
 -10.899  0.633E-02  0.263E-02  0.190E-02  0.168E-02  0.679E-04  0.590E-04
 -10.889  0.584E-02  0.240E-02  0.173E-02  0.159E-02  0.620E-04  0.559E-04
 -10.879  0.547E-02  0.221E-02  0.162E-02  0.153E-02  0.582E-04  0.538E-04
 -10.869  0.524E-02  0.206E-02  0.156E-02  0.151E-02  0.584E-04  0.531E-04
 -10.859  0.519E-02  0.194E-02  0.155E-02  0.158E-02  0.591E-04  0.531E-04
 -10.849  0.521E-02  0.185E-02  0.156E-02  0.169E-02  0.603E-04  0.534E-04
 -10.839  0.534E-02  0.182E-02  0.161E-02  0.180E-02  0.619E-04  0.549E-04
 -10.829  0.138E-01  0.475E-02  0.428E-02  0.438E-02  0.219E-03  0.175E-03
 -10.819  0.114E-01  0.375E-02  0.351E-02  0.386E-02  0.160E-03  0.134E-03
 -10.809  0.929E-02  0.292E-02  0.284E-02  0.332E-02  0.114E-03  0.102E-03
 -10.799  0.744E-02  0.226E-02  0.226E-02  0.277E-02  0.807E-04  0.765E-04
 -10.789  0.586E-02  0.177E-02  0.177E-02  0.220E-02  0.604E-04  0.590E-04
 -10.779  0.486E-02  0.152E-02  0.147E-02  0.177E-02  0.535E-04  0.511E-04
 -10.769  0.587E-02  0.189E-02  0.181E-02  0.204E-02  0.717E-04  0.654E-04
 -10.759  0.705E-02  0.230E-02  0.221E-02  0.236E-02  0.943E-04  0.822E-04
 -10.749  0.815E-02  0.267E-02  0.259E-02  0.268E-02  0.116E-03  0.975E-04
 -10.739  0.917E-02  0.299E-02  0.294E-02  0.300E-02  0.136E-03  0.111E-03
 -10.729  0.101E-01  0.326E-02  0.326E-02  0.332E-02  0.155E-03  0.124E-03
 -10.719  0.110E-01  0.348E-02  0.355E-02  0.364E-02  0.173E-03  0.135E-03
 -10.709  0.118E-01  0.365E-02  0.382E-02  0.397E-02  0.190E-03  0.144E-03
 -10.699  0.125E-01  0.377E-02  0.406E-02  0.429E-02  0.205E-03  0.152E-03
 -10.689  0.131E-01  0.385E-02  0.428E-02  0.462E-02  0.220E-03  0.158E-03
 -10.679  0.137E-01  0.387E-02  0.447E-02  0.495E-02  0.233E-03  0.164E-03
 -10.669  0.815E-02  0.277E-02  0.271E-02  0.242E-02  0.137E-03  0.114E-03
 -10.659  0.819E-02  0.276E-02  0.273E-02  0.244E-02  0.140E-03  0.116E-03
 -10.649  0.822E-02  0.275E-02  0.275E-02  0.246E-02  0.143E-03  0.118E-03
 -10.639  0.824E-02  0.274E-02  0.276E-02  0.247E-02  0.146E-03  0.120E-03
 -10.629  0.826E-02  0.272E-02  0.278E-02  0.249E-02  0.149E-03  0.122E-03
 -10.619  0.827E-02  0.270E-02  0.280E-02  0.250E-02  0.152E-03  0.124E-03
 -10.609  0.828E-02  0.268E-02  0.281E-02  0.251E-02  0.155E-03  0.126E-03
 -10.599  0.828E-02  0.265E-02  0.282E-02  0.252E-02  0.158E-03  0.128E-03
 -10.589  0.828E-02  0.262E-02  0.284E-02  0.253E-02  0.162E-03  0.131E-03
 -10.579  0.827E-02  0.259E-02  0.285E-02  0.254E-02  0.165E-03  0.133E-03
 -10.569  0.826E-02  0.255E-02  0.286E-02  0.255E-02  0.169E-03  0.135E-03
 -10.559  0.824E-02  0.251E-02  0.287E-02  0.256E-02  0.172E-03  0.138E-03
 -10.549  0.821E-02  0.246E-02  0.288E-02  0.256E-02  0.176E-03  0.140E-03
 -10.539  0.818E-02  0.241E-02  0.288E-02  0.257E-02  0.179E-03  0.143E-03
 -10.529  0.815E-02  0.236E-02  0.289E-02  0.257E-02  0.183E-03  0.145E-03
 -10.519  0.811E-02  0.230E-02  0.290E-02  0.257E-02  0.186E-03  0.148E-03
 -10.509  0.921E-02  0.259E-02  0.334E-02  0.292E-02  0.200E-03  0.164E-03
 -10.499  0.199E-01  0.576E-02  0.745E-02  0.576E-02  0.485E-03  0.393E-03
 -10.489  0.381E-01  0.105E-01  0.137E-01  0.118E-01  0.118E-02  0.948E-03
 -10.479  0.930E-02  0.252E-02  0.340E-02  0.298E-02  0.218E-03  0.183E-03
 -10.469  0.936E-02  0.252E-02  0.343E-02  0.299E-02  0.223E-03  0.190E-03
 -10.459  0.941E-02  0.252E-02  0.347E-02  0.300E-02  0.227E-03  0.197E-03
 -10.449  0.947E-02  0.253E-02  0.350E-02  0.300E-02  0.231E-03  0.204E-03
 -10.439  0.952E-02  0.253E-02  0.354E-02  0.300E-02  0.234E-03  0.211E-03
 -10.429  0.957E-02  0.254E-02  0.357E-02  0.300E-02  0.237E-03  0.219E-03
 -10.419  0.964E-02  0.256E-02  0.361E-02  0.300E-02  0.240E-03  0.227E-03
 -10.409  0.979E-02  0.260E-02  0.369E-02  0.302E-02  0.245E-03  0.237E-03
 -10.399  0.994E-02  0.264E-02  0.376E-02  0.304E-02  0.250E-03  0.247E-03
 -10.389  0.101E-01  0.267E-02  0.382E-02  0.306E-02  0.257E-03  0.258E-03
 -10.379  0.102E-01  0.270E-02  0.388E-02  0.308E-02  0.265E-03  0.268E-03
 -10.369  0.103E-01  0.272E-02  0.393E-02  0.310E-02  0.275E-03  0.278E-03
 -10.359  0.104E-01  0.274E-02  0.397E-02  0.312E-02  0.285E-03  0.288E-03
 -10.349  0.105E-01  0.274E-02  0.401E-02  0.314E-02  0.297E-03  0.299E-03
 -10.339  0.106E-01  0.274E-02  0.404E-02  0.316E-02  0.310E-03  0.309E-03
 -10.329  0.106E-01  0.274E-02  0.407E-02  0.319E-02  0.324E-03  0.319E-03
 -10.319  0.107E-01  0.273E-02  0.407E-02  0.319E-02  0.338E-03  0.329E-03
 -10.309  0.107E-01  0.271E-02  0.407E-02  0.319E-02  0.353E-03  0.339E-03
 -10.299  0.109E-01  0.274E-02  0.416E-02  0.327E-02  0.371E-03  0.353E-03
 -10.289  0.112E-01  0.278E-02  0.426E-02  0.336E-02  0.389E-03  0.367E-03
 -10.279  0.114E-01  0.281E-02  0.434E-02  0.345E-02  0.408E-03  0.381E-03
 -10.269  0.116E-01  0.282E-02  0.442E-02  0.353E-02  0.428E-03  0.394E-03
 -10.259  0.118E-01  0.284E-02  0.449E-02  0.361E-02  0.448E-03  0.408E-03
 -10.249  0.120E-01  0.284E-02  0.456E-02  0.369E-02  0.469E-03  0.421E-03
 -10.239  0.121E-01  0.283E-02  0.462E-02  0.376E-02  0.490E-03  0.433E-03
 -10.229  0.123E-01  0.282E-02  0.467E-02  0.383E-02  0.512E-03  0.446E-03
 -10.219  0.124E-01  0.279E-02  0.472E-02  0.390E-02  0.534E-03  0.458E-03
 -10.209  0.125E-01  0.276E-02  0.475E-02  0.396E-02  0.557E-03  0.469E-03
 -10.199  0.126E-01  0.272E-02  0.479E-02  0.402E-02  0.580E-03  0.480E-03
 -10.189  0.127E-01  0.268E-02  0.482E-02  0.409E-02  0.604E-03  0.492E-03
 -10.179  0.136E-01  0.276E-02  0.516E-02  0.448E-02  0.640E-03  0.517E-03
 -10.169  0.144E-01  0.279E-02  0.546E-02  0.490E-02  0.683E-03  0.541E-03
 -10.159  0.152E-01  0.279E-02  0.572E-02  0.535E-02  0.733E-03  0.565E-03
 -10.149  0.159E-01  0.275E-02  0.594E-02  0.585E-02  0.789E-03  0.590E-03
 -10.139  0.186E-01  0.288E-02  0.660E-02  0.695E-02  0.141E-02  0.771E-03
 -10.129  0.110E-01  0.133E-02  0.416E-02  0.506E-02  0.277E-03  0.224E-03
 -10.119  0.118E-01  0.123E-02  0.430E-02  0.567E-02  0.331E-03  0.241E-03
 -10.109  0.144E-01  0.160E-02  0.542E-02  0.665E-02  0.401E-03  0.323E-03
 -10.099  0.184E-01  0.251E-02  0.747E-02  0.753E-02  0.446E-03  0.460E-03
 -10.089  0.224E-01  0.361E-02  0.972E-02  0.800E-02  0.449E-03  0.600E-03
 -10.079  0.140E-01  0.248E-02  0.626E-02  0.459E-02  0.243E-03  0.397E-03
 -10.069  0.152E-01  0.262E-02  0.676E-02  0.515E-02  0.263E-03  0.422E-03
 -10.059  0.162E-01  0.265E-02  0.712E-02  0.575E-02  0.283E-03  0.432E-03
 -10.049  0.201E-01  0.309E-02  0.870E-02  0.744E-02  0.374E-03  0.534E-03
 -10.039  0.191E-01  0.291E-02  0.823E-02  0.684E-02  0.501E-03  0.649E-03
 -10.029  0.184E-01  0.277E-02  0.788E-02  0.637E-02  0.623E-03  0.761E-03
 -10.019  0.177E-01  0.264E-02  0.754E-02  0.595E-02  0.738E-03  0.867E-03
 -10.009  0.170E-01  0.250E-02  0.717E-02  0.555E-02  0.847E-03  0.964E-03
  -9.999  0.163E-01  0.236E-02  0.678E-02  0.516E-02  0.948E-03  0.105E-02
  -9.989  0.155E-01  0.220E-02  0.636E-02  0.478E-02  0.104E-02  0.113E-02
  -9.979  0.147E-01  0.204E-02  0.592E-02  0.442E-02  0.113E-02  0.121E-02
  -9.969  0.139E-01  0.187E-02  0.545E-02  0.406E-02  0.121E-02  0.127E-02
  -9.959  0.130E-01  0.170E-02  0.495E-02  0.372E-02  0.128E-02  0.133E-02
  -9.949  0.125E-01  0.156E-02  0.442E-02  0.339E-02  0.161E-02  0.152E-02
  -9.939  0.128E-01  0.145E-02  0.389E-02  0.311E-02  0.232E-02  0.204E-02
  -9.929  0.135E-01  0.135E-02  0.335E-02  0.291E-02  0.314E-02  0.275E-02
  -9.919  0.156E-01  0.138E-02  0.329E-02  0.309E-02  0.410E-02  0.369E-02
  -9.909  0.191E-01  0.152E-02  0.369E-02  0.387E-02  0.521E-02  0.485E-02
  -9.899  0.231E-01  0.171E-02  0.418E-02  0.458E-02  0.645E-02  0.622E-02
  -9.889  0.484E-01  0.306E-02  0.476E-02  0.524E-02  0.206E-01  0.147E-01
  -9.879  0.322E-01  0.205E-02  0.565E-02  0.616E-02  0.917E-02  0.921E-02
  -9.869  0.322E-01  0.227E-02  0.673E-02  0.713E-02  0.790E-02  0.814E-02
  -9.859  0.324E-01  0.256E-02  0.789E-02  0.795E-02  0.677E-02  0.719E-02
  -9.849  0.329E-01  0.293E-02  0.915E-02  0.863E-02  0.579E-02  0.638E-02
  -9.839  0.268E-01  0.254E-02  0.755E-02  0.675E-02  0.468E-02  0.531E-02
  -9.829  0.270E-01  0.283E-02  0.836E-02  0.714E-02  0.395E-02  0.467E-02
  -9.819  0.275E-01  0.322E-02  0.926E-02  0.744E-02  0.337E-02  0.416E-02
  -9.809  0.283E-01  0.369E-02  0.103E-01  0.764E-02  0.292E-02  0.379E-02
  -9.799  0.296E-01  0.425E-02  0.114E-01  0.775E-02  0.261E-02  0.356E-02
  -9.789  0.252E-01  0.375E-02  0.972E-02  0.651E-02  0.230E-02  0.292E-02
  -9.779  0.394E-02  0.458E-03  0.739E-03  0.607E-03  0.109E-02  0.105E-02
  -9.769  0.264E-02  0.249E-03  0.923E-04  0.760E-04  0.115E-02  0.107E-02
  -9.759  0.331E-02  0.300E-03  0.174E-03  0.144E-03  0.145E-02  0.124E-02
  -9.749  0.407E-02  0.355E-03  0.267E-03  0.220E-03  0.181E-02  0.143E-02
  -9.739  0.609E-01  0.143E-02  0.476E-03  0.395E-03  0.298E-01  0.288E-01
  -9.729  0.569E-01  0.160E-02  0.741E-03  0.614E-03  0.276E-01  0.263E-01
  -9.719  0.531E-01  0.180E-02  0.106E-02  0.875E-03  0.259E-01  0.235E-01
  -9.709  0.474E-01  0.189E-02  0.142E-02  0.117E-02  0.232E-01  0.197E-01
  -9.699  0.391E-01  0.170E-02  0.172E-02  0.142E-02  0.186E-01  0.157E-01
  -9.689  0.326E-01  0.150E-02  0.193E-02  0.160E-02  0.151E-01  0.125E-01
  -9.679  0.307E-01  0.145E-02  0.204E-02  0.170E-02  0.137E-01  0.118E-01
  -9.669  0.291E-01  0.139E-02  0.207E-02  0.172E-02  0.125E-01  0.113E-01
  -9.659  0.311E-01  0.134E-02  0.200E-02  0.167E-02  0.136E-01  0.125E-01
  -9.649  0.339E-01  0.128E-02  0.184E-02  0.155E-02  0.152E-01  0.141E-01
  -9.639  0.371E-01  0.123E-02  0.159E-02  0.136E-02  0.169E-01  0.160E-01
  -9.629  0.405E-01  0.117E-02  0.124E-02  0.109E-02  0.188E-01  0.181E-01
  -9.619  0.439E-01  0.112E-02  0.803E-03  0.741E-03  0.209E-01  0.203E-01
  -9.609  0.473E-01  0.107E-02  0.273E-03  0.322E-03  0.231E-01  0.225E-01
  -9.599  0.518E-01  0.111E-02  0.827E-04  0.186E-03  0.255E-01  0.249E-01
  -9.589  0.566E-01  0.119E-02  0.969E-04  0.221E-03  0.279E-01  0.272E-01
  -9.579  0.613E-01  0.128E-02  0.112E-03  0.258E-03  0.303E-01  0.294E-01
  -9.569  0.660E-01  0.137E-02  0.129E-03  0.298E-03  0.326E-01  0.316E-01
  -9.559  0.749E-01  0.175E-02  0.166E-03  0.351E-03  0.371E-01  0.356E-01
  -9.549  0.874E-01  0.210E-02  0.248E-03  0.429E-03  0.433E-01  0.413E-01
  -9.539  0.103E+00  0.240E-02  0.375E-03  0.531E-03  0.512E-01  0.485E-01
  -9.529  0.122E+00  0.265E-02  0.545E-03  0.657E-03  0.608E-01  0.572E-01
  -9.519  0.964E-01  0.226E-02  0.754E-03  0.798E-03  0.467E-01  0.459E-01
  -9.509  0.101E+00  0.230E-02  0.101E-02  0.968E-03  0.484E-01  0.486E-01
  -9.499  0.108E+00  0.234E-02  0.131E-02  0.116E-02  0.512E-01  0.523E-01
  -9.489  0.950E-01  0.217E-02  0.165E-02  0.138E-02  0.442E-01  0.456E-01
  -9.479  0.804E-01  0.224E-02  0.204E-02  0.162E-02  0.360E-01  0.385E-01
  -9.469  0.674E-01  0.230E-02  0.248E-02  0.188E-02  0.288E-01  0.320E-01
  -9.459  0.564E-01  0.241E-02  0.295E-02  0.217E-02  0.228E-01  0.261E-01
  -9.449  0.488E-01  0.252E-02  0.348E-02  0.248E-02  0.186E-01  0.218E-01
  -9.439  0.424E-01  0.261E-02  0.377E-02  0.213E-02  0.153E-01  0.186E-01
  -9.429  0.340E-01  0.216E-02  0.229E-02  0.143E-02  0.128E-01  0.153E-01
  -9.419  0.305E-01  0.203E-02  0.203E-02  0.129E-02  0.122E-01  0.130E-01
  -9.409  0.296E-01  0.191E-02  0.179E-02  0.116E-02  0.132E-01  0.116E-01
  -9.399  0.294E-01  0.177E-02  0.158E-02  0.105E-02  0.144E-01  0.106E-01
  -9.389  0.298E-01  0.162E-02  0.140E-02  0.951E-03  0.159E-01  0.995E-02
  -9.379  0.386E-01  0.149E-02  0.124E-02  0.865E-03  0.197E-01  0.152E-01
  -9.369  0.497E-01  0.135E-02  0.112E-02  0.793E-03  0.246E-01  0.219E-01
  -9.359  0.612E-01  0.120E-02  0.103E-02  0.735E-03  0.297E-01  0.286E-01
  -9.349  0.731E-01  0.104E-02  0.961E-03  0.691E-03  0.350E-01  0.354E-01
  -9.339  0.856E-01  0.922E-03  0.923E-03  0.660E-03  0.408E-01  0.423E-01
  -9.329  0.992E-01  0.105E-02  0.895E-03  0.635E-03  0.471E-01  0.494E-01
  -9.319  0.113E+00  0.118E-02  0.867E-03  0.610E-03  0.536E-01  0.563E-01
  -9.309  0.126E+00  0.132E-02  0.838E-03  0.585E-03  0.601E-01  0.630E-01
  -9.299  0.139E+00  0.146E-02  0.807E-03  0.560E-03  0.667E-01  0.695E-01
  -9.289  0.487E+00  0.731E-02  0.865E-03  0.634E-03  0.268E+00  0.210E+00
  -9.279  0.423E+00  0.417E-02  0.816E-03  0.588E-03  0.216E+00  0.201E+00
  -9.269  0.329E+00  0.270E-02  0.751E-03  0.528E-03  0.157E+00  0.168E+00
  -9.259  0.252E+00  0.345E-02  0.679E-03  0.465E-03  0.114E+00  0.133E+00
  -9.249  0.175E+00  0.312E-02  0.632E-03  0.428E-03  0.812E-01  0.893E-01
  -9.239  0.104E+00  0.195E-02  0.587E-03  0.392E-03  0.502E-01  0.509E-01
  -9.229  0.713E-01  0.110E-02  0.546E-03  0.360E-03  0.354E-01  0.339E-01
  -9.219  0.699E-01  0.114E-02  0.507E-03  0.333E-03  0.347E-01  0.333E-01
  -9.209  0.686E-01  0.118E-02  0.466E-03  0.306E-03  0.340E-01  0.326E-01
  -9.199  0.672E-01  0.121E-02  0.425E-03  0.278E-03  0.333E-01  0.320E-01
  -9.189  0.705E-01  0.129E-02  0.384E-03  0.252E-03  0.348E-01  0.338E-01
  -9.179  0.806E-01  0.147E-02  0.345E-03  0.228E-03  0.395E-01  0.390E-01
  -9.169  0.894E-01  0.167E-02  0.304E-03  0.204E-03  0.434E-01  0.438E-01
  -9.159  0.968E-01  0.188E-02  0.262E-03  0.180E-03  0.465E-01  0.480E-01
  -9.149  0.103E+00  0.213E-02  0.219E-03  0.155E-03  0.488E-01  0.516E-01
  -9.139  0.108E+00  0.239E-02  0.174E-03  0.129E-03  0.502E-01  0.547E-01
  -9.129  0.111E+00  0.267E-02  0.127E-03  0.103E-03  0.509E-01  0.572E-01
  -9.119  0.106E+00  0.277E-02  0.775E-04  0.778E-04  0.487E-01  0.540E-01
  -9.109  0.993E-01  0.282E-02  0.697E-04  0.757E-04  0.462E-01  0.502E-01
  -9.099  0.934E-01  0.286E-02  0.700E-04  0.763E-04  0.438E-01  0.466E-01
  -9.089  0.878E-01  0.289E-02  0.706E-04  0.772E-04  0.415E-01  0.432E-01
  -9.079  0.826E-01  0.291E-02  0.716E-04  0.783E-04  0.394E-01  0.401E-01
  -9.069  0.777E-01  0.291E-02  0.729E-04  0.796E-04  0.373E-01  0.373E-01
  -9.059  0.732E-01  0.290E-02  0.746E-04  0.811E-04  0.354E-01  0.347E-01
  -9.049  0.234E+00  0.560E-02  0.231E-03  0.464E-03  0.149E+00  0.787E-01
  -9.039  0.903E-01  0.351E-02  0.130E-02  0.271E-02  0.418E-01  0.410E-01
  -9.029  0.333E-01  0.190E-02  0.292E-04  0.350E-04  0.169E-01  0.144E-01
  -9.019  0.334E-01  0.194E-02  0.326E-04  0.378E-04  0.170E-01  0.144E-01
  -9.009  0.335E-01  0.198E-02  0.363E-04  0.408E-04  0.170E-01  0.144E-01
  -8.999  0.336E-01  0.203E-02  0.403E-04  0.438E-04  0.171E-01  0.144E-01
  -8.989  0.336E-01  0.207E-02  0.445E-04  0.471E-04  0.171E-01  0.144E-01
  -8.979  0.337E-01  0.211E-02  0.490E-04  0.504E-04  0.171E-01  0.144E-01
  -8.969  0.337E-01  0.216E-02  0.538E-04  0.539E-04  0.171E-01  0.144E-01
  -8.959  0.338E-01  0.220E-02  0.589E-04  0.575E-04  0.170E-01  0.144E-01
  -8.949  0.338E-01  0.225E-02  0.643E-04  0.612E-04  0.170E-01  0.144E-01
  -8.939  0.337E-01  0.229E-02  0.699E-04  0.650E-04  0.169E-01  0.144E-01
  -8.929  0.537E-01  0.401E-02  0.910E-04  0.801E-04  0.258E-01  0.237E-01
  -8.919  0.514E-01  0.396E-02  0.986E-04  0.849E-04  0.246E-01  0.227E-01
  -8.909  0.492E-01  0.390E-02  0.106E-03  0.894E-04  0.234E-01  0.216E-01
  -8.899  0.470E-01  0.383E-02  0.113E-03  0.938E-04  0.223E-01  0.207E-01
  -8.889  0.448E-01  0.375E-02  0.120E-03  0.979E-04  0.211E-01  0.197E-01
  -8.879  0.426E-01  0.366E-02  0.126E-03  0.102E-03  0.200E-01  0.187E-01
  -8.869  0.404E-01  0.357E-02  0.132E-03  0.105E-03  0.188E-01  0.178E-01
  -8.859  0.383E-01  0.346E-02  0.138E-03  0.109E-03  0.177E-01  0.169E-01
  -8.849  0.648E-01  0.485E-02  0.346E-03  0.251E-03  0.277E-01  0.316E-01
  -8.839  0.591E-01  0.457E-02  0.327E-03  0.238E-03  0.252E-01  0.287E-01
  -8.829  0.536E-01  0.429E-02  0.309E-03  0.225E-03  0.228E-01  0.260E-01
  -8.819  0.483E-01  0.400E-02  0.292E-03  0.212E-03  0.205E-01  0.233E-01
  -8.809  0.432E-01  0.370E-02  0.274E-03  0.200E-03  0.183E-01  0.208E-01
  -8.799  0.384E-01  0.340E-02  0.257E-03  0.187E-03  0.162E-01  0.184E-01
  -8.789  0.337E-01  0.310E-02  0.240E-03  0.174E-03  0.141E-01  0.161E-01
  -8.779  0.292E-01  0.278E-02  0.223E-03  0.162E-03  0.122E-01  0.139E-01
  -8.769  0.250E-01  0.247E-02  0.206E-03  0.150E-03  0.104E-01  0.118E-01
  -8.759  0.209E-01  0.214E-02  0.189E-03  0.137E-03  0.862E-02  0.982E-02
  -8.749  0.170E-01  0.182E-02  0.173E-03  0.125E-03  0.696E-02  0.797E-02
  -8.739  0.134E-01  0.148E-02  0.157E-03  0.113E-03  0.540E-02  0.624E-02
  -8.729  0.104E-01  0.122E-02  0.142E-03  0.101E-03  0.417E-02  0.481E-02
  -8.719  0.784E-02  0.980E-03  0.126E-03  0.897E-04  0.310E-02  0.355E-02
  -8.709  0.553E-02  0.742E-03  0.112E-03  0.781E-04  0.214E-02  0.246E-02
  -8.699  0.697E-02  0.167E-02  0.163E-03  0.120E-03  0.259E-02  0.243E-02
  -8.689  0.993E-02  0.267E-02  0.460E-03  0.353E-03  0.350E-02  0.295E-02
  -8.679  0.128E-01  0.323E-02  0.101E-02  0.785E-03  0.428E-02  0.351E-02
  -8.669  0.156E-01  0.332E-02  0.182E-02  0.142E-02  0.499E-02  0.409E-02
  -8.659  0.192E-01  0.296E-02  0.289E-02  0.225E-02  0.602E-02  0.507E-02
  -8.649  0.231E-01  0.221E-02  0.420E-02  0.323E-02  0.716E-02  0.633E-02
  -8.639  0.204E-01  0.136E-02  0.165E-02  0.170E-02  0.809E-02  0.760E-02
  -8.629  0.234E-01  0.141E-02  0.149E-02  0.134E-02  0.948E-02  0.971E-02
  -8.619  0.249E-01  0.148E-02  0.137E-02  0.108E-02  0.101E-01  0.108E-01
  -8.609  0.246E-01  0.153E-02  0.128E-02  0.910E-03  0.100E-01  0.109E-01
  -8.599  0.225E-01  0.157E-02  0.122E-02  0.827E-03  0.908E-02  0.984E-02
  -8.589  0.227E-01  0.166E-02  0.119E-02  0.818E-03  0.916E-02  0.988E-02
  -8.579  0.245E-01  0.180E-02  0.118E-02  0.817E-03  0.997E-02  0.107E-01
  -8.569  0.262E-01  0.194E-02  0.116E-02  0.819E-03  0.107E-01  0.115E-01
  -8.559  0.278E-01  0.208E-02  0.115E-02  0.822E-03  0.115E-01  0.123E-01
  -8.549  0.294E-01  0.222E-02  0.115E-02  0.827E-03  0.122E-01  0.130E-01
  -8.539  0.308E-01  0.237E-02  0.114E-02  0.834E-03  0.128E-01  0.137E-01
  -8.529  0.322E-01  0.251E-02  0.115E-02  0.843E-03  0.134E-01  0.143E-01
  -8.519  0.336E-01  0.266E-02  0.115E-02  0.854E-03  0.140E-01  0.149E-01
  -8.509  0.348E-01  0.281E-02  0.116E-02  0.866E-03  0.145E-01  0.155E-01
  -8.499  0.360E-01  0.296E-02  0.118E-02  0.881E-03  0.150E-01  0.160E-01
  -8.489  0.371E-01  0.311E-02  0.120E-02  0.898E-03  0.154E-01  0.164E-01
  -8.479  0.385E-01  0.336E-02  0.127E-02  0.954E-03  0.160E-01  0.169E-01
  -8.469  0.402E-01  0.368E-02  0.139E-02  0.104E-02  0.166E-01  0.175E-01
  -8.459  0.419E-01  0.398E-02  0.151E-02  0.112E-02  0.172E-01  0.181E-01
  -8.449  0.434E-01  0.426E-02  0.163E-02  0.120E-02  0.177E-01  0.186E-01
  -8.439  0.449E-01  0.453E-02  0.174E-02  0.127E-02  0.183E-01  0.191E-01
  -8.429  0.463E-01  0.477E-02  0.186E-02  0.134E-02  0.188E-01  0.196E-01
  -8.419  0.477E-01  0.500E-02  0.197E-02  0.141E-02  0.192E-01  0.201E-01
  -8.409  0.489E-01  0.521E-02  0.208E-02  0.148E-02  0.197E-01  0.205E-01
  -8.399  0.501E-01  0.540E-02  0.219E-02  0.154E-02  0.201E-01  0.209E-01
  -8.389  0.512E-01  0.557E-02  0.229E-02  0.160E-02  0.205E-01  0.213E-01
  -8.379  0.374E-01  0.399E-02  0.236E-02  0.164E-02  0.145E-01  0.149E-01
  -8.369  0.362E-01  0.383E-02  0.245E-02  0.168E-02  0.140E-01  0.143E-01
  -8.359  0.565E-01  0.643E-02  0.257E-02  0.171E-02  0.193E-01  0.265E-01
  -8.349  0.440E-01  0.519E-02  0.259E-02  0.169E-02  0.144E-01  0.201E-01
  -8.339  0.379E-01  0.451E-02  0.282E-02  0.178E-02  0.124E-01  0.164E-01
  -8.329  0.329E-01  0.399E-02  0.299E-02  0.180E-02  0.107E-01  0.133E-01
  -8.319  0.287E-01  0.362E-02  0.310E-02  0.176E-02  0.937E-02  0.109E-01
  -8.309  0.255E-01  0.340E-02  0.314E-02  0.166E-02  0.832E-02  0.903E-02
  -8.299  0.231E-01  0.331E-02  0.295E-02  0.149E-02  0.758E-02  0.778E-02
  -8.289  0.272E-01  0.422E-02  0.432E-02  0.252E-02  0.819E-02  0.791E-02
  -8.279  0.669E-01  0.140E-01  0.645E-02  0.387E-02  0.225E-01  0.201E-01
  -8.269  0.220E-01  0.387E-02  0.247E-02  0.136E-02  0.740E-02  0.688E-02
  -8.259  0.212E-01  0.393E-02  0.221E-02  0.123E-02  0.725E-02  0.657E-02
  -8.249  0.206E-01  0.398E-02  0.205E-02  0.114E-02  0.714E-02  0.632E-02
  -8.239  0.202E-01  0.402E-02  0.193E-02  0.107E-02  0.705E-02  0.613E-02
  -8.229  0.199E-01  0.403E-02  0.187E-02  0.104E-02  0.699E-02  0.600E-02
  -8.219  0.198E-01  0.402E-02  0.187E-02  0.103E-02  0.696E-02  0.594E-02
  -8.209  0.205E-01  0.430E-02  0.205E-02  0.109E-02  0.705E-02  0.598E-02
  -8.199  0.212E-01  0.460E-02  0.225E-02  0.115E-02  0.713E-02  0.602E-02
  -8.189  0.219E-01  0.491E-02  0.248E-02  0.123E-02  0.719E-02  0.608E-02
  -8.179  0.227E-01  0.524E-02  0.274E-02  0.132E-02  0.724E-02  0.614E-02
  -8.169  0.194E-01  0.393E-02  0.212E-02  0.107E-02  0.656E-02  0.571E-02
  -8.159  0.198E-01  0.402E-02  0.218E-02  0.109E-02  0.670E-02  0.586E-02
  -8.149  0.204E-01  0.410E-02  0.223E-02  0.111E-02  0.687E-02  0.607E-02
  -8.139  0.210E-01  0.419E-02  0.228E-02  0.113E-02  0.708E-02  0.635E-02
  -8.129  0.218E-01  0.429E-02  0.232E-02  0.116E-02  0.732E-02  0.668E-02
  -8.119  0.226E-01  0.439E-02  0.237E-02  0.118E-02  0.759E-02  0.707E-02
  -8.109  0.235E-01  0.449E-02  0.241E-02  0.121E-02  0.790E-02  0.751E-02
  -8.099  0.245E-01  0.460E-02  0.244E-02  0.123E-02  0.824E-02  0.802E-02
  -8.089  0.257E-01  0.472E-02  0.248E-02  0.126E-02  0.862E-02  0.859E-02
  -8.079  0.273E-01  0.496E-02  0.257E-02  0.135E-02  0.914E-02  0.928E-02
  -8.069  0.293E-01  0.527E-02  0.262E-02  0.142E-02  0.989E-02  0.101E-01
  -8.059  0.316E-01  0.563E-02  0.263E-02  0.149E-02  0.109E-01  0.110E-01
  -8.049  0.342E-01  0.603E-02  0.259E-02  0.153E-02  0.120E-01  0.120E-01
  -8.039  0.372E-01  0.650E-02  0.250E-02  0.155E-02  0.134E-01  0.132E-01
  -8.029  0.405E-01  0.701E-02  0.236E-02  0.155E-02  0.151E-01  0.145E-01
  -8.019  0.442E-01  0.759E-02  0.216E-02  0.153E-02  0.170E-01  0.159E-01
  -8.009  0.469E-01  0.797E-02  0.192E-02  0.149E-02  0.187E-01  0.168E-01
  -7.999  0.410E-01  0.706E-02  0.165E-02  0.140E-02  0.163E-01  0.146E-01
  -7.989  0.359E-01  0.626E-02  0.137E-02  0.127E-02  0.142E-01  0.127E-01
  -7.979  0.873E-01  0.186E-01  0.533E-02  0.269E-02  0.310E-01  0.296E-01
  -7.969  0.659E-01  0.136E-01  0.661E-02  0.294E-02  0.219E-01  0.208E-01
  -7.959  0.479E-01  0.954E-02  0.632E-02  0.262E-02  0.152E-01  0.143E-01
  -7.949  0.335E-01  0.647E-02  0.453E-02  0.181E-02  0.107E-01  0.996E-02
  -7.939  0.224E-01  0.434E-02  0.126E-02  0.589E-03  0.851E-02  0.770E-02
  -7.929  0.196E-01  0.378E-02  0.112E-02  0.540E-03  0.748E-02  0.666E-02
  -7.919  0.171E-01  0.328E-02  0.111E-02  0.537E-03  0.649E-02  0.567E-02
  -7.909  0.147E-01  0.280E-02  0.110E-02  0.530E-03  0.553E-02  0.471E-02
  -7.899  0.123E-01  0.234E-02  0.108E-02  0.518E-03  0.459E-02  0.380E-02
  -7.889  0.101E-01  0.191E-02  0.104E-02  0.501E-03  0.368E-02  0.292E-02
  -7.879  0.805E-02  0.153E-02  0.999E-03  0.479E-03  0.288E-02  0.217E-02
  -7.869  0.718E-02  0.134E-02  0.944E-03  0.453E-03  0.255E-02  0.188E-02
  -7.859  0.138E-01  0.202E-02  0.448E-02  0.270E-02  0.274E-02  0.187E-02
  -7.849  0.152E-01  0.189E-02  0.400E-02  0.240E-02  0.379E-02  0.309E-02
  -7.839  0.162E-01  0.179E-02  0.353E-02  0.213E-02  0.467E-02  0.413E-02
  -7.829  0.170E-01  0.171E-02  0.309E-02  0.186E-02  0.539E-02  0.498E-02
  -7.819  0.175E-01  0.165E-02  0.267E-02  0.162E-02  0.594E-02  0.565E-02
  -7.809  0.179E-01  0.165E-02  0.232E-02  0.141E-02  0.635E-02  0.616E-02
  -7.799  0.181E-01  0.168E-02  0.207E-02  0.126E-02  0.659E-02  0.648E-02
  -7.789  0.179E-01  0.172E-02  0.186E-02  0.114E-02  0.664E-02  0.658E-02
  -7.779  0.174E-01  0.176E-02  0.169E-02  0.103E-02  0.648E-02  0.647E-02
  -7.769  0.165E-01  0.181E-02  0.154E-02  0.946E-03  0.612E-02  0.613E-02
  -7.759  0.153E-01  0.187E-02  0.143E-02  0.883E-03  0.556E-02  0.557E-02
  -7.749  0.137E-01  0.193E-02  0.135E-02  0.842E-03  0.479E-02  0.479E-02
  -7.739  0.127E-01  0.200E-02  0.130E-02  0.820E-03  0.430E-02  0.431E-02
  -7.729  0.131E-01  0.207E-02  0.125E-02  0.802E-03  0.449E-02  0.454E-02
  -7.719  0.136E-01  0.214E-02  0.120E-02  0.784E-03  0.467E-02  0.476E-02
  -7.709  0.139E-01  0.221E-02  0.115E-02  0.766E-03  0.484E-02  0.497E-02
  -7.699  0.143E-01  0.228E-02  0.110E-02  0.748E-03  0.502E-02  0.518E-02
  -7.689  0.147E-01  0.234E-02  0.105E-02  0.730E-03  0.519E-02  0.538E-02
  -7.679  0.150E-01  0.240E-02  0.997E-03  0.712E-03  0.535E-02  0.558E-02
  -7.669  0.154E-01  0.247E-02  0.941E-03  0.693E-03  0.551E-02  0.577E-02
  -7.659  0.157E-01  0.253E-02  0.884E-03  0.675E-03  0.567E-02  0.595E-02
  -7.649  0.192E-01  0.324E-02  0.841E-03  0.659E-03  0.640E-02  0.803E-02
  -7.639  0.328E-01  0.522E-02  0.986E-03  0.703E-03  0.106E-01  0.153E-01
  -7.629  0.521E-01  0.822E-02  0.143E-02  0.849E-03  0.181E-01  0.235E-01
  -7.619  0.956E-01  0.136E-01  0.289E-02  0.136E-02  0.371E-01  0.407E-01
  -7.609  0.151E+00  0.130E-01  0.550E-02  0.227E-02  0.634E-01  0.664E-01
  -7.599  0.115E+00  0.627E-02  0.910E-02  0.353E-02  0.475E-01  0.486E-01
  -7.589  0.299E-01  0.281E-02  0.125E-02  0.650E-03  0.129E-01  0.123E-01
  -7.579  0.293E-01  0.290E-02  0.129E-02  0.674E-03  0.126E-01  0.118E-01
  -7.569  0.288E-01  0.299E-02  0.133E-02  0.699E-03  0.123E-01  0.114E-01
  -7.559  0.282E-01  0.308E-02  0.137E-02  0.725E-03  0.120E-01  0.110E-01
  -7.549  0.277E-01  0.317E-02  0.141E-02  0.752E-03  0.117E-01  0.107E-01
  -7.539  0.273E-01  0.326E-02  0.146E-02  0.780E-03  0.115E-01  0.103E-01
  -7.529  0.264E-01  0.326E-02  0.132E-02  0.719E-03  0.111E-01  0.995E-02
  -7.519  0.260E-01  0.335E-02  0.137E-02  0.747E-03  0.109E-01  0.968E-02
  -7.509  0.257E-01  0.344E-02  0.142E-02  0.775E-03  0.106E-01  0.943E-02
  -7.499  0.254E-01  0.353E-02  0.147E-02  0.804E-03  0.104E-01  0.921E-02
  -7.489  0.252E-01  0.362E-02  0.153E-02  0.834E-03  0.102E-01  0.901E-02
  -7.479  0.249E-01  0.371E-02  0.158E-02  0.864E-03  0.995E-02  0.884E-02
  -7.469  0.248E-01  0.380E-02  0.164E-02  0.896E-03  0.974E-02  0.869E-02
  -7.459  0.246E-01  0.390E-02  0.170E-02  0.929E-03  0.955E-02  0.857E-02
  -7.449  0.245E-01  0.399E-02  0.176E-02  0.963E-03  0.936E-02  0.847E-02
  -7.439  0.245E-01  0.408E-02  0.183E-02  0.997E-03  0.919E-02  0.840E-02
  -7.429  0.245E-01  0.417E-02  0.189E-02  0.103E-02  0.902E-02  0.836E-02
  -7.419  0.769E-01  0.122E-01  0.942E-02  0.534E-02  0.255E-01  0.244E-01
  -7.409  0.790E-01  0.100E-01  0.731E-02  0.410E-02  0.291E-01  0.285E-01
  -7.399  0.666E-01  0.833E-02  0.608E-02  0.338E-02  0.246E-01  0.242E-01
  -7.389  0.545E-01  0.717E-02  0.550E-02  0.304E-02  0.195E-01  0.192E-01
  -7.379  0.478E-01  0.623E-02  0.477E-02  0.262E-02  0.171E-01  0.171E-01
  -7.369  0.419E-01  0.545E-02  0.382E-02  0.209E-02  0.152E-01  0.153E-01
  -7.359  0.367E-01  0.484E-02  0.266E-02  0.144E-02  0.138E-01  0.140E-01
  -7.349  0.326E-01  0.443E-02  0.138E-02  0.709E-03  0.129E-01  0.131E-01
  -7.339  0.311E-01  0.431E-02  0.119E-02  0.595E-03  0.124E-01  0.126E-01
  -7.329  0.297E-01  0.415E-02  0.111E-02  0.547E-03  0.118E-01  0.120E-01
  -7.319  0.282E-01  0.394E-02  0.104E-02  0.509E-03  0.113E-01  0.114E-01
  -7.309  0.266E-01  0.367E-02  0.993E-03  0.480E-03  0.107E-01  0.108E-01
  -7.299  0.250E-01  0.335E-02  0.960E-03  0.460E-03  0.101E-01  0.101E-01
  -7.289  0.254E-01  0.299E-02  0.944E-03  0.450E-03  0.106E-01  0.104E-01
  -7.279  0.273E-01  0.271E-02  0.947E-03  0.450E-03  0.118E-01  0.114E-01
  -7.269  0.314E-01  0.283E-02  0.961E-03  0.458E-03  0.137E-01  0.134E-01
  -7.259  0.340E-01  0.274E-02  0.980E-03  0.468E-03  0.151E-01  0.147E-01
  -7.249  0.366E-01  0.266E-02  0.100E-02  0.480E-03  0.165E-01  0.160E-01
  -7.239  0.396E-01  0.266E-02  0.110E-02  0.540E-03  0.180E-01  0.173E-01
  -7.229  0.422E-01  0.262E-02  0.110E-02  0.545E-03  0.193E-01  0.186E-01
  -7.219  0.434E-01  0.258E-02  0.111E-02  0.552E-03  0.199E-01  0.192E-01
  -7.209  0.437E-01  0.254E-02  0.111E-02  0.561E-03  0.202E-01  0.194E-01
  -7.199  0.440E-01  0.250E-02  0.113E-02  0.572E-03  0.204E-01  0.195E-01
  -7.189  0.443E-01  0.247E-02  0.114E-02  0.585E-03  0.205E-01  0.196E-01
  -7.179  0.446E-01  0.245E-02  0.116E-02  0.600E-03  0.207E-01  0.197E-01
  -7.169  0.448E-01  0.243E-02  0.119E-02  0.618E-03  0.208E-01  0.198E-01
  -7.159  0.451E-01  0.243E-02  0.122E-02  0.638E-03  0.209E-01  0.199E-01
  -7.149  0.453E-01  0.243E-02  0.125E-02  0.661E-03  0.209E-01  0.200E-01
  -7.139  0.455E-01  0.244E-02  0.129E-02  0.685E-03  0.210E-01  0.201E-01
  -7.129  0.457E-01  0.246E-02  0.133E-02  0.712E-03  0.210E-01  0.202E-01
  -7.119  0.458E-01  0.249E-02  0.138E-02  0.741E-03  0.210E-01  0.203E-01
  -7.109  0.460E-01  0.252E-02  0.143E-02  0.772E-03  0.209E-01  0.203E-01
  -7.099  0.461E-01  0.257E-02  0.149E-02  0.806E-03  0.209E-01  0.204E-01
  -7.089  0.463E-01  0.262E-02  0.155E-02  0.841E-03  0.208E-01  0.205E-01
  -7.079  0.464E-01  0.268E-02  0.161E-02  0.879E-03  0.207E-01  0.205E-01
  -7.069  0.465E-01  0.274E-02  0.168E-02  0.920E-03  0.205E-01  0.206E-01
  -7.059  0.465E-01  0.282E-02  0.175E-02  0.962E-03  0.204E-01  0.206E-01
  -7.049  0.466E-01  0.290E-02  0.183E-02  0.101E-02  0.202E-01  0.207E-01
  -7.039  0.466E-01  0.300E-02  0.192E-02  0.105E-02  0.200E-01  0.207E-01
  -7.029  0.467E-01  0.310E-02  0.200E-02  0.110E-02  0.197E-01  0.207E-01
  -7.019  0.569E-01  0.324E-02  0.215E-02  0.119E-02  0.254E-01  0.250E-01
  -7.009  0.986E-01  0.383E-02  0.406E-02  0.207E-02  0.416E-01  0.471E-01
  -6.999  0.577E-01  0.368E-02  0.232E-02  0.129E-02  0.243E-01  0.261E-01
  -6.989  0.646E-01  0.630E-02  0.397E-02  0.222E-02  0.252E-01  0.269E-01
  -6.979  0.850E-01  0.123E-01  0.273E-02  0.150E-02  0.335E-01  0.350E-01
  -6.969  0.506E-01  0.559E-02  0.196E-02  0.104E-02  0.202E-01  0.219E-01
  -6.959  0.461E-01  0.528E-02  0.194E-02  0.103E-02  0.182E-01  0.196E-01
  -6.949  0.420E-01  0.501E-02  0.185E-02  0.978E-03  0.165E-01  0.176E-01
  -6.939  0.386E-01  0.479E-02  0.171E-02  0.899E-03  0.151E-01  0.161E-01
  -6.929  0.357E-01  0.462E-02  0.150E-02  0.789E-03  0.140E-01  0.148E-01
  -6.919  0.334E-01  0.450E-02  0.124E-02  0.647E-03  0.131E-01  0.140E-01
  -6.909  0.318E-01  0.444E-02  0.941E-03  0.498E-03  0.125E-01  0.135E-01
  -6.899  0.310E-01  0.447E-02  0.705E-03  0.390E-03  0.121E-01  0.133E-01
  -6.889  0.376E-01  0.472E-02  0.642E-03  0.358E-03  0.165E-01  0.153E-01
  -6.879  0.351E-01  0.411E-02  0.659E-03  0.366E-03  0.152E-01  0.148E-01
  -6.869  0.327E-01  0.356E-02  0.676E-03  0.374E-03  0.138E-01  0.143E-01
  -6.859  0.301E-01  0.307E-02  0.692E-03  0.382E-03  0.123E-01  0.137E-01
  -6.849  0.325E+00  0.869E-01  0.454E-01  0.250E-01  0.570E-01  0.111E+00
  -6.839  0.438E-01  0.573E-02  0.134E-02  0.736E-03  0.155E-01  0.205E-01
  -6.829  0.690E-01  0.725E-02  0.113E-02  0.621E-03  0.265E-01  0.335E-01
  -6.819  0.103E+00  0.644E-02  0.938E-03  0.516E-03  0.438E-01  0.511E-01
  -6.809  0.512E-01  0.203E-02  0.761E-03  0.417E-03  0.219E-01  0.261E-01
  -6.799  0.484E-01  0.174E-02  0.615E-03  0.338E-03  0.210E-01  0.248E-01
  -6.789  0.453E-01  0.147E-02  0.490E-03  0.270E-03  0.199E-01  0.232E-01
  -6.779  0.419E-01  0.122E-02  0.384E-03  0.214E-03  0.186E-01  0.214E-01
  -6.769  0.381E-01  0.100E-02  0.298E-03  0.169E-03  0.172E-01  0.195E-01
  -6.759  0.341E-01  0.804E-03  0.233E-03  0.135E-03  0.156E-01  0.173E-01
  -6.749  0.297E-01  0.630E-03  0.188E-03  0.114E-03  0.138E-01  0.149E-01
  -6.739  0.250E-01  0.480E-03  0.163E-03  0.103E-03  0.119E-01  0.123E-01
  -6.729  0.199E-01  0.353E-03  0.158E-03  0.105E-03  0.981E-02  0.950E-02
  -6.719  0.156E-01  0.263E-03  0.174E-03  0.117E-03  0.795E-02  0.712E-02
  -6.709  0.142E-01  0.227E-03  0.200E-03  0.136E-03  0.728E-02  0.637E-02
  -6.699  0.167E-01  0.249E-03  0.249E-03  0.171E-03  0.894E-02  0.708E-02
  -6.689  0.192E-01  0.284E-03  0.334E-03  0.230E-03  0.104E-01  0.790E-02
  -6.679  0.236E-01  0.322E-03  0.460E-03  0.319E-03  0.134E-01  0.911E-02
  -6.669  0.311E-01  0.394E-03  0.683E-03  0.477E-03  0.185E-01  0.110E-01
  -6.659  0.425E-01  0.560E-03  0.115E-02  0.769E-03  0.256E-01  0.144E-01
  -6.649  0.524E-01  0.801E-03  0.190E-02  0.121E-02  0.303E-01  0.182E-01
  -6.639  0.590E-01  0.112E-02  0.293E-02  0.180E-02  0.322E-01  0.210E-01
  -6.629  0.623E-01  0.150E-02  0.423E-02  0.253E-02  0.312E-01  0.228E-01
  -6.619  0.622E-01  0.196E-02  0.580E-02  0.340E-02  0.274E-01  0.237E-01
  -6.609  0.459E-01  0.147E-02  0.357E-02  0.180E-02  0.179E-01  0.211E-01
  -6.599  0.459E-01  0.155E-02  0.310E-02  0.160E-02  0.184E-01  0.213E-01
  -6.589  0.457E-01  0.159E-02  0.273E-02  0.145E-02  0.186E-01  0.213E-01
  -6.579  0.453E-01  0.159E-02  0.245E-02  0.133E-02  0.188E-01  0.211E-01
  -6.569  0.447E-01  0.154E-02  0.226E-02  0.126E-02  0.188E-01  0.208E-01
  -6.559  0.439E-01  0.146E-02  0.217E-02  0.123E-02  0.187E-01  0.203E-01
  -6.549  0.429E-01  0.133E-02  0.217E-02  0.124E-02  0.184E-01  0.197E-01
  -6.539  0.553E-01  0.389E-02  0.230E-02  0.131E-02  0.231E-01  0.248E-01
  -6.529  0.925E-01  0.568E-02  0.287E-02  0.158E-02  0.373E-01  0.450E-01
  -6.519  0.146E+00  0.311E-02  0.395E-02  0.208E-02  0.583E-01  0.783E-01
  -6.509  0.302E-01  0.250E-02  0.213E-02  0.124E-02  0.121E-01  0.123E-01
  -6.499  0.305E-01  0.263E-02  0.216E-02  0.126E-02  0.121E-01  0.124E-01
  -6.489  0.310E-01  0.276E-02  0.218E-02  0.128E-02  0.122E-01  0.126E-01
  -6.479  0.316E-01  0.290E-02  0.221E-02  0.129E-02  0.124E-01  0.128E-01
  -6.469  0.324E-01  0.310E-02  0.224E-02  0.131E-02  0.126E-01  0.131E-01
  -6.459  0.332E-01  0.329E-02  0.226E-02  0.133E-02  0.129E-01  0.134E-01
  -6.449  0.341E-01  0.347E-02  0.228E-02  0.134E-02  0.132E-01  0.138E-01
  -6.439  0.351E-01  0.365E-02  0.231E-02  0.136E-02  0.136E-01  0.142E-01
  -6.429  0.361E-01  0.382E-02  0.233E-02  0.137E-02  0.140E-01  0.146E-01
  -6.419  0.372E-01  0.399E-02  0.235E-02  0.138E-02  0.145E-01  0.150E-01
  -6.409  0.383E-01  0.414E-02  0.236E-02  0.139E-02  0.149E-01  0.155E-01
  -6.399  0.396E-01  0.429E-02  0.238E-02  0.140E-02  0.155E-01  0.160E-01
  -6.389  0.408E-01  0.444E-02  0.240E-02  0.141E-02  0.161E-01  0.165E-01
  -6.379  0.427E-01  0.464E-02  0.263E-02  0.152E-02  0.167E-01  0.172E-01
  -6.369  0.456E-01  0.498E-02  0.316E-02  0.179E-02  0.176E-01  0.181E-01
  -6.359  0.487E-01  0.538E-02  0.360E-02  0.201E-02  0.186E-01  0.191E-01
  -6.349  0.520E-01  0.583E-02  0.396E-02  0.219E-02  0.198E-01  0.202E-01
  -6.339  0.555E-01  0.634E-02  0.422E-02  0.233E-02  0.211E-01  0.215E-01
  -6.329  0.593E-01  0.690E-02  0.440E-02  0.242E-02  0.226E-01  0.229E-01
  -6.319  0.184E+00  0.335E-01  0.542E-02  0.299E-02  0.711E-01  0.712E-01
  -6.309  0.145E+00  0.133E-01  0.695E-02  0.377E-02  0.536E-01  0.676E-01
  -6.299  0.806E-01  0.350E-02  0.109E-02  0.717E-03  0.328E-01  0.425E-01
  -6.289  0.423E-01  0.259E-02  0.116E-02  0.767E-03  0.189E-01  0.189E-01
  -6.279  0.540E-01  0.370E-02  0.123E-02  0.831E-03  0.251E-01  0.231E-01
  -6.269  0.739E-01  0.452E-02  0.132E-02  0.898E-03  0.349E-01  0.322E-01
  -6.259  0.102E+00  0.497E-02  0.141E-02  0.973E-03  0.481E-01  0.461E-01
  -6.249  0.137E+00  0.506E-02  0.152E-02  0.106E-02  0.643E-01  0.647E-01
  -6.239  0.518E-01  0.242E-02  0.173E-02  0.121E-02  0.238E-01  0.226E-01
  -6.229  0.524E-01  0.241E-02  0.203E-02  0.143E-02  0.238E-01  0.227E-01
  -6.219  0.530E-01  0.241E-02  0.234E-02  0.167E-02  0.238E-01  0.228E-01
  -6.209  0.535E-01  0.241E-02  0.268E-02  0.192E-02  0.236E-01  0.228E-01
  -6.199  0.539E-01  0.240E-02  0.305E-02  0.219E-02  0.235E-01  0.228E-01
  -6.189  0.561E-01  0.243E-02  0.358E-02  0.255E-02  0.239E-01  0.237E-01
  -6.179  0.562E-01  0.244E-02  0.396E-02  0.284E-02  0.236E-01  0.234E-01
  -6.169  0.564E-01  0.246E-02  0.436E-02  0.315E-02  0.233E-01  0.231E-01
  -6.159  0.576E-01  0.262E-02  0.485E-02  0.353E-02  0.233E-01  0.232E-01
  -6.149  0.580E-01  0.263E-02  0.528E-02  0.386E-02  0.232E-01  0.230E-01
  -6.139  0.590E-01  0.268E-02  0.576E-02  0.422E-02  0.236E-01  0.227E-01
  -6.129  0.605E-01  0.276E-02  0.634E-02  0.468E-02  0.244E-01  0.223E-01
  -6.119  0.627E-01  0.296E-02  0.705E-02  0.524E-02  0.252E-01  0.222E-01
  -6.109  0.638E-01  0.301E-02  0.789E-02  0.591E-02  0.252E-01  0.217E-01
  -6.099  0.636E-01  0.272E-02  0.880E-02  0.665E-02  0.247E-01  0.207E-01
  -6.089  0.641E-01  0.279E-02  0.987E-02  0.752E-02  0.239E-01  0.200E-01
  -6.079  0.639E-01  0.282E-02  0.108E-01  0.828E-02  0.229E-01  0.191E-01
  -6.069  0.635E-01  0.286E-02  0.116E-01  0.897E-02  0.219E-01  0.183E-01
  -6.059  0.636E-01  0.291E-02  0.126E-01  0.984E-02  0.209E-01  0.174E-01
  -6.049  0.652E-01  0.302E-02  0.140E-01  0.111E-01  0.202E-01  0.169E-01
  -6.039  0.674E-01  0.319E-02  0.154E-01  0.123E-01  0.198E-01  0.166E-01
  -6.029  0.689E-01  0.331E-02  0.166E-01  0.133E-01  0.192E-01  0.164E-01
  -6.019  0.703E-01  0.342E-02  0.177E-01  0.143E-01  0.185E-01  0.163E-01
  -6.009  0.717E-01  0.353E-02  0.189E-01  0.153E-01  0.178E-01  0.161E-01
  -5.999  0.731E-01  0.365E-02  0.200E-01  0.164E-01  0.171E-01  0.160E-01
  -5.989  0.746E-01  0.376E-02  0.212E-01  0.174E-01  0.164E-01  0.158E-01
  -5.979  0.743E-01  0.383E-02  0.212E-01  0.178E-01  0.159E-01  0.156E-01
  -5.969  0.714E-01  0.383E-02  0.193E-01  0.170E-01  0.155E-01  0.156E-01
  -5.959  0.687E-01  0.383E-02  0.177E-01  0.161E-01  0.154E-01  0.157E-01
  -5.949  0.665E-01  0.383E-02  0.163E-01  0.151E-01  0.154E-01  0.158E-01
  -5.939  0.645E-01  0.382E-02  0.153E-01  0.140E-01  0.155E-01  0.159E-01
  -5.929  0.626E-01  0.380E-02  0.144E-01  0.128E-01  0.156E-01  0.161E-01
  -5.919  0.616E-01  0.380E-02  0.140E-01  0.119E-01  0.157E-01  0.161E-01
  -5.909  0.146E+00  0.575E-02  0.643E-01  0.423E-01  0.169E-01  0.172E-01
  -5.899  0.608E-01  0.382E-02  0.129E-01  0.113E-01  0.164E-01  0.164E-01
  -5.889  0.621E-01  0.390E-02  0.132E-01  0.117E-01  0.168E-01  0.165E-01
  -5.879  0.634E-01  0.398E-02  0.135E-01  0.122E-01  0.171E-01  0.166E-01
  -5.869  0.638E-01  0.403E-02  0.132E-01  0.121E-01  0.177E-01  0.168E-01
  -5.859  0.652E-01  0.410E-02  0.126E-01  0.119E-01  0.191E-01  0.175E-01
  -5.849  0.668E-01  0.414E-02  0.119E-01  0.118E-01  0.206E-01  0.184E-01
  -5.839  0.682E-01  0.418E-02  0.111E-01  0.115E-01  0.222E-01  0.194E-01
  -5.829  0.696E-01  0.422E-02  0.102E-01  0.110E-01  0.237E-01  0.204E-01
  -5.819  0.713E-01  0.433E-02  0.934E-02  0.105E-01  0.254E-01  0.217E-01
  -5.809  0.738E-01  0.462E-02  0.844E-02  0.976E-02  0.274E-01  0.235E-01
  -5.799  0.765E-01  0.490E-02  0.751E-02  0.892E-02  0.295E-01  0.257E-01
  -5.789  0.793E-01  0.518E-02  0.653E-02  0.794E-02  0.316E-01  0.280E-01
  -5.779  0.824E-01  0.545E-02  0.553E-02  0.683E-02  0.338E-01  0.307E-01
  -5.769  0.856E-01  0.571E-02  0.449E-02  0.557E-02  0.361E-01  0.337E-01
  -5.759  0.891E-01  0.596E-02  0.341E-02  0.418E-02  0.385E-01  0.370E-01
  -5.749  0.927E-01  0.621E-02  0.230E-02  0.266E-02  0.410E-01  0.405E-01
  -5.739  0.965E-01  0.646E-02  0.115E-02  0.992E-03  0.435E-01  0.444E-01
  -5.729  0.960E-01  0.733E-02  0.869E-03  0.697E-03  0.406E-01  0.466E-01
  -5.719  0.835E-01  0.709E-02  0.670E-03  0.513E-03  0.340E-01  0.412E-01
  -5.709  0.665E-01  0.563E-02  0.568E-03  0.431E-03  0.276E-01  0.323E-01
  -5.699  0.444E-01  0.317E-02  0.531E-03  0.421E-03  0.209E-01  0.194E-01
  -5.689  0.480E-01  0.313E-02  0.543E-03  0.437E-03  0.227E-01  0.212E-01
  -5.679  0.510E-01  0.309E-02  0.539E-03  0.440E-03  0.241E-01  0.228E-01
  -5.669  0.526E-01  0.298E-02  0.523E-03  0.432E-03  0.248E-01  0.239E-01
  -5.659  0.532E-01  0.286E-02  0.496E-03  0.414E-03  0.250E-01  0.244E-01
  -5.649  0.529E-01  0.273E-02  0.468E-03  0.395E-03  0.249E-01  0.244E-01
  -5.639  0.527E-01  0.261E-02  0.442E-03  0.377E-03  0.249E-01  0.244E-01
  -5.629  0.525E-01  0.249E-02  0.418E-03  0.360E-03  0.247E-01  0.245E-01
  -5.619  0.523E-01  0.237E-02  0.396E-03  0.345E-03  0.246E-01  0.245E-01
  -5.609  0.520E-01  0.226E-02  0.377E-03  0.331E-03  0.245E-01  0.246E-01
  -5.599  0.518E-01  0.216E-02  0.360E-03  0.318E-03  0.243E-01  0.247E-01
  -5.589  0.516E-01  0.206E-02  0.344E-03  0.307E-03  0.242E-01  0.247E-01
  -5.579  0.514E-01  0.197E-02  0.332E-03  0.297E-03  0.240E-01  0.249E-01
  -5.569  0.415E-01  0.171E-02  0.277E-03  0.252E-03  0.190E-01  0.202E-01
  -5.559  0.411E-01  0.171E-02  0.266E-03  0.244E-03  0.188E-01  0.201E-01
  -5.549  0.408E-01  0.170E-02  0.255E-03  0.235E-03  0.187E-01  0.199E-01
  -5.539  0.405E-01  0.170E-02  0.244E-03  0.227E-03  0.186E-01  0.198E-01
  -5.529  0.402E-01  0.170E-02  0.232E-03  0.218E-03  0.185E-01  0.196E-01
  -5.519  0.399E-01  0.169E-02  0.221E-03  0.210E-03  0.184E-01  0.194E-01
  -5.509  0.396E-01  0.169E-02  0.210E-03  0.201E-03  0.183E-01  0.193E-01
  -5.499  0.394E-01  0.169E-02  0.199E-03  0.193E-03  0.182E-01  0.191E-01
  -5.489  0.391E-01  0.169E-02  0.188E-03  0.184E-03  0.181E-01  0.189E-01
  -5.479  0.388E-01  0.168E-02  0.177E-03  0.176E-03  0.180E-01  0.187E-01
  -5.469  0.385E-01  0.168E-02  0.167E-03  0.168E-03  0.179E-01  0.186E-01
  -5.459  0.382E-01  0.168E-02  0.156E-03  0.159E-03  0.178E-01  0.184E-01
  -5.449  0.379E-01  0.168E-02  0.145E-03  0.151E-03  0.178E-01  0.182E-01
  -5.439  0.377E-01  0.168E-02  0.134E-03  0.143E-03  0.177E-01  0.180E-01
  -5.429  0.374E-01  0.167E-02  0.123E-03  0.134E-03  0.176E-01  0.178E-01
  -5.419  0.371E-01  0.167E-02  0.112E-03  0.126E-03  0.176E-01  0.177E-01
  -5.409  0.369E-01  0.167E-02  0.101E-03  0.118E-03  0.175E-01  0.175E-01
  -5.399  0.113E+00  0.436E-02  0.319E-03  0.414E-03  0.512E-01  0.571E-01
  -5.389  0.374E-01  0.221E-02  0.846E-04  0.105E-03  0.175E-01  0.175E-01
  -5.379  0.268E-01  0.103E-02  0.690E-04  0.798E-04  0.132E-01  0.124E-01
  -5.369  0.259E-01  0.116E-02  0.714E-04  0.833E-04  0.127E-01  0.119E-01
  -5.359  0.255E-01  0.144E-02  0.118E-03  0.143E-03  0.124E-01  0.114E-01
  -5.349  0.252E-01  0.166E-02  0.216E-03  0.267E-03  0.121E-01  0.110E-01
  -5.339  0.250E-01  0.183E-02  0.366E-03  0.456E-03  0.117E-01  0.106E-01
  -5.329  0.247E-01  0.195E-02  0.567E-03  0.709E-03  0.114E-01  0.101E-01
  -5.319  0.245E-01  0.201E-02  0.820E-03  0.103E-02  0.110E-01  0.963E-02
  -5.309  0.244E-01  0.202E-02  0.112E-02  0.141E-02  0.106E-01  0.915E-02
  -5.299  0.242E-01  0.198E-02  0.148E-02  0.186E-02  0.102E-01  0.867E-02
  -5.289  0.242E-01  0.188E-02  0.189E-02  0.237E-02  0.983E-02  0.818E-02
  -5.279  0.241E-01  0.173E-02  0.235E-02  0.295E-02  0.940E-02  0.768E-02
  -5.269  0.330E-01  0.160E-02  0.737E-02  0.721E-02  0.921E-02  0.762E-02
  -5.259  0.692E-01  0.174E-02  0.219E-01  0.196E-01  0.129E-01  0.131E-01
  -5.249  0.107E+00  0.197E-02  0.323E-01  0.295E-01  0.197E-01  0.236E-01
  -5.239  0.129E+00  0.210E-02  0.395E-01  0.383E-01  0.236E-01  0.260E-01
  -5.229  0.140E+00  0.214E-02  0.412E-01  0.425E-01  0.248E-01  0.292E-01
  -5.219  0.146E+00  0.245E-02  0.325E-01  0.362E-01  0.298E-01  0.448E-01
  -5.209  0.139E+00  0.276E-02  0.288E-01  0.313E-01  0.302E-01  0.462E-01
  -5.199  0.119E+00  0.297E-02  0.276E-01  0.306E-01  0.261E-01  0.319E-01
  -5.189  0.119E+00  0.343E-02  0.310E-01  0.351E-01  0.254E-01  0.240E-01
  -5.179  0.190E+00  0.567E-02  0.353E-01  0.380E-01  0.671E-01  0.443E-01
  -5.169  0.200E+00  0.101E-01  0.433E-01  0.411E-01  0.645E-01  0.411E-01
  -5.159  0.187E+00  0.147E-01  0.428E-01  0.457E-01  0.445E-01  0.392E-01
  -5.149  0.140E+00  0.544E-02  0.404E-01  0.474E-01  0.220E-01  0.246E-01
  -5.139  0.138E+00  0.462E-02  0.402E-01  0.471E-01  0.212E-01  0.247E-01
  -5.129  0.131E+00  0.388E-02  0.383E-01  0.446E-01  0.202E-01  0.244E-01
  -5.119  0.124E+00  0.321E-02  0.361E-01  0.418E-01  0.189E-01  0.236E-01
  -5.109  0.115E+00  0.262E-02  0.338E-01  0.389E-01  0.174E-01  0.223E-01
  -5.099  0.106E+00  0.211E-02  0.313E-01  0.358E-01  0.158E-01  0.206E-01
  -5.089  0.103E+00  0.172E-02  0.322E-01  0.371E-01  0.140E-01  0.185E-01
  -5.079  0.979E-01  0.142E-02  0.326E-01  0.358E-01  0.120E-01  0.160E-01
  -5.069  0.870E-01  0.116E-02  0.304E-01  0.324E-01  0.990E-02  0.131E-01
  -5.059  0.759E-01  0.986E-03  0.283E-01  0.293E-01  0.759E-02  0.981E-02
  -5.049  0.660E-01  0.932E-03  0.262E-01  0.263E-01  0.578E-02  0.677E-02
  -5.039  0.616E-01  0.974E-03  0.241E-01  0.237E-01  0.596E-02  0.698E-02
  -5.029  0.578E-01  0.103E-02  0.219E-01  0.212E-01  0.632E-02  0.732E-02
  -5.019  0.543E-01  0.109E-02  0.198E-01  0.190E-01  0.671E-02  0.768E-02
  -5.009  0.613E-01  0.120E-02  0.179E-01  0.173E-01  0.122E-01  0.127E-01
  -4.999  0.709E-01  0.136E-02  0.168E-01  0.166E-01  0.183E-01  0.179E-01
  -4.989  0.797E-01  0.157E-02  0.163E-01  0.168E-01  0.231E-01  0.219E-01
  -4.979  0.912E-01  0.247E-02  0.167E-01  0.181E-01  0.279E-01  0.260E-01
  -4.969  0.104E+00  0.350E-02  0.185E-01  0.206E-01  0.320E-01  0.295E-01
  -4.959  0.117E+00  0.423E-02  0.220E-01  0.242E-01  0.345E-01  0.316E-01
  -4.949  0.116E+00  0.367E-02  0.207E-01  0.228E-01  0.358E-01  0.327E-01
  -4.939  0.282E+00  0.448E-02  0.694E-01  0.129E+00  0.406E-01  0.383E-01
  -4.929  0.141E+00  0.337E-02  0.246E-01  0.269E-01  0.433E-01  0.426E-01
  -4.919  0.119E+00  0.252E-02  0.149E-01  0.159E-01  0.428E-01  0.430E-01
  -4.909  0.793E-01  0.156E-02  0.820E-02  0.797E-02  0.311E-01  0.306E-01
  -4.899  0.347E-01  0.712E-03  0.406E-02  0.297E-02  0.140E-01  0.130E-01
  -4.889  0.160E+00  0.178E-02  0.311E-01  0.338E-01  0.460E-01  0.470E-01
  -4.879  0.835E-01  0.798E-03  0.251E-01  0.287E-01  0.143E-01  0.146E-01
  -4.869  0.422E-01  0.395E-03  0.154E-01  0.160E-01  0.516E-02  0.523E-02
  -4.859  0.551E-01  0.470E-03  0.226E-01  0.223E-01  0.484E-02  0.494E-02
  -4.849  0.684E-01  0.574E-03  0.288E-01  0.280E-01  0.541E-02  0.564E-02
  -4.839  0.791E-01  0.709E-03  0.329E-01  0.316E-01  0.678E-02  0.713E-02
  -4.829  0.870E-01  0.844E-03  0.350E-01  0.329E-01  0.896E-02  0.936E-02
  -4.819  0.920E-01  0.974E-03  0.349E-01  0.319E-01  0.119E-01  0.123E-01
  -4.809  0.961E-01  0.112E-02  0.336E-01  0.295E-01  0.158E-01  0.161E-01
  -4.799  0.867E-01  0.108E-02  0.346E-01  0.292E-01  0.101E-01  0.116E-01
  -4.789  0.102E+00  0.128E-02  0.429E-01  0.359E-01  0.100E-01  0.121E-01
  -4.779  0.131E+00  0.158E-02  0.570E-01  0.484E-01  0.105E-01  0.131E-01
  -4.769  0.168E+00  0.195E-02  0.758E-01  0.656E-01  0.110E-01  0.140E-01
  -4.759  0.607E-01  0.135E-02  0.167E-01  0.165E-01  0.113E-01  0.148E-01
  -4.749  0.575E-01  0.148E-02  0.140E-01  0.151E-01  0.116E-01  0.153E-01
  -4.739  0.548E-01  0.163E-02  0.118E-01  0.141E-01  0.118E-01  0.154E-01
  -4.729  0.527E-01  0.179E-02  0.103E-01  0.134E-01  0.119E-01  0.153E-01
  -4.719  0.507E-01  0.197E-02  0.910E-02  0.127E-01  0.121E-01  0.149E-01
  -4.709  0.488E-01  0.216E-02  0.827E-02  0.120E-01  0.121E-01  0.142E-01
  -4.699  0.482E-01  0.238E-02  0.779E-02  0.113E-01  0.131E-01  0.136E-01
  -4.689  0.694E-01  0.497E-02  0.758E-02  0.108E-01  0.258E-01  0.203E-01
  -4.679  0.754E-01  0.769E-02  0.757E-02  0.103E-01  0.271E-01  0.228E-01
  -4.669  0.116E+00  0.635E-02  0.140E-01  0.253E-01  0.366E-01  0.339E-01
  -4.659  0.108E+00  0.486E-02  0.170E-01  0.343E-01  0.268E-01  0.250E-01
  -4.649  0.945E-01  0.353E-02  0.175E-01  0.359E-01  0.192E-01  0.183E-01
  -4.639  0.758E-01  0.239E-02  0.155E-01  0.299E-01  0.142E-01  0.139E-01
  -4.629  0.520E-01  0.142E-02  0.109E-01  0.165E-01  0.115E-01  0.116E-01
  -4.619  0.105E+00  0.193E-02  0.455E-01  0.294E-01  0.139E-01  0.142E-01
  -4.609  0.267E+00  0.359E-02  0.985E-01  0.700E-01  0.478E-01  0.474E-01
  -4.599  0.256E+00  0.266E-02  0.106E+00  0.107E+00  0.205E-01  0.201E-01
  -4.589  0.120E+00  0.142E-02  0.373E-01  0.424E-01  0.193E-01  0.197E-01
  -4.579  0.126E+00  0.141E-02  0.390E-01  0.443E-01  0.207E-01  0.211E-01
  -4.569  0.132E+00  0.147E-02  0.406E-01  0.459E-01  0.220E-01  0.223E-01
  -4.559  0.139E+00  0.261E-02  0.422E-01  0.474E-01  0.232E-01  0.235E-01
  -4.549  0.145E+00  0.379E-02  0.437E-01  0.486E-01  0.243E-01  0.246E-01
  -4.539  0.151E+00  0.490E-02  0.450E-01  0.496E-01  0.255E-01  0.256E-01
  -4.529  0.155E+00  0.593E-02  0.462E-01  0.503E-01  0.265E-01  0.265E-01
  -4.519  0.125E+00  0.672E-02  0.368E-01  0.326E-01  0.249E-01  0.245E-01
  -4.509  0.108E+00  0.788E-02  0.384E-01  0.273E-01  0.172E-01  0.167E-01
  -4.499  0.112E+00  0.969E-02  0.388E-01  0.271E-01  0.186E-01  0.182E-01
  -4.489  0.108E+00  0.120E-01  0.318E-01  0.227E-01  0.208E-01  0.205E-01
  -4.479  0.175E+00  0.195E-01  0.274E-01  0.250E-01  0.535E-01  0.494E-01
  -4.469  0.114E+00  0.635E-02  0.120E-01  0.107E-01  0.448E-01  0.403E-01
  -4.459  0.291E-01  0.303E-02  0.806E-02  0.700E-02  0.542E-02  0.562E-02
  -4.449  0.277E-01  0.269E-02  0.764E-02  0.668E-02  0.526E-02  0.544E-02
  -4.439  0.304E-01  0.304E-02  0.877E-02  0.768E-02  0.534E-02  0.551E-02
  -4.429  0.351E-01  0.267E-02  0.114E-01  0.101E-01  0.531E-02  0.555E-02
  -4.419  0.376E-01  0.241E-02  0.129E-01  0.115E-01  0.527E-02  0.558E-02
  -4.409  0.379E-01  0.224E-02  0.131E-01  0.117E-01  0.524E-02  0.558E-02
  -4.399  0.360E-01  0.218E-02  0.122E-01  0.109E-01  0.520E-02  0.557E-02
  -4.389  0.392E-01  0.221E-02  0.138E-01  0.123E-01  0.524E-02  0.565E-02
  -4.379  0.448E-01  0.227E-02  0.164E-01  0.146E-01  0.547E-02  0.601E-02
  -4.369  0.487E-01  0.233E-02  0.179E-01  0.160E-01  0.589E-02  0.663E-02
  -4.359  0.969E-01  0.294E-02  0.393E-01  0.388E-01  0.720E-02  0.868E-02
  -4.349  0.136E+00  0.456E-02  0.534E-01  0.535E-01  0.106E-01  0.137E-01
  -4.339  0.165E+00  0.653E-02  0.586E-01  0.585E-01  0.182E-01  0.227E-01
  -4.329  0.177E+00  0.747E-02  0.554E-01  0.546E-01  0.278E-01  0.321E-01
  -4.319  0.167E+00  0.741E-02  0.538E-01  0.523E-01  0.295E-01  0.244E-01
  -4.309  0.150E+00  0.758E-02  0.547E-01  0.522E-01  0.178E-01  0.179E-01
  -4.299  0.144E+00  0.803E-02  0.541E-01  0.506E-01  0.157E-01  0.160E-01
  -4.289  0.130E+00  0.853E-02  0.458E-01  0.421E-01  0.175E-01  0.166E-01
  -4.279  0.117E+00  0.890E-02  0.372E-01  0.334E-01  0.197E-01  0.177E-01
  -4.269  0.103E+00  0.914E-02  0.282E-01  0.245E-01  0.223E-01  0.192E-01
  -4.259  0.811E-01  0.875E-02  0.185E-01  0.153E-01  0.216E-01  0.170E-01
  -4.249  0.410E-01  0.314E-02  0.116E-01  0.982E-02  0.748E-02  0.895E-02
  -4.239  0.430E-01  0.313E-02  0.118E-01  0.102E-01  0.808E-02  0.978E-02
  -4.229  0.806E-01  0.394E-02  0.291E-01  0.262E-01  0.973E-02  0.117E-01
  -4.219  0.106E+00  0.399E-02  0.364E-01  0.380E-01  0.125E-01  0.147E-01
  -4.209  0.127E+00  0.404E-02  0.417E-01  0.442E-01  0.175E-01  0.198E-01
  -4.199  0.135E+00  0.403E-02  0.444E-01  0.457E-01  0.192E-01  0.213E-01
  -4.189  0.137E+00  0.404E-02  0.463E-01  0.466E-01  0.191E-01  0.206E-01
  -4.179  0.137E+00  0.411E-02  0.476E-01  0.471E-01  0.188E-01  0.199E-01
  -4.169  0.137E+00  0.424E-02  0.483E-01  0.472E-01  0.184E-01  0.191E-01
  -4.159  0.136E+00  0.443E-02  0.484E-01  0.471E-01  0.179E-01  0.183E-01
  -4.149  0.134E+00  0.467E-02  0.478E-01  0.466E-01  0.173E-01  0.173E-01
  -4.139  0.130E+00  0.494E-02  0.465E-01  0.453E-01  0.166E-01  0.163E-01
  -4.129  0.125E+00  0.527E-02  0.447E-01  0.437E-01  0.159E-01  0.157E-01
  -4.119  0.270E+00  0.624E-02  0.428E-01  0.418E-01  0.937E-01  0.853E-01
  -4.109  0.560E-01  0.573E-02  0.178E-01  0.176E-01  0.762E-02  0.724E-02
  -4.099  0.496E-01  0.431E-02  0.166E-01  0.154E-01  0.686E-02  0.635E-02
  -4.089  0.473E-01  0.441E-02  0.158E-01  0.143E-01  0.670E-02  0.610E-02
  -4.079  0.451E-01  0.451E-02  0.150E-01  0.131E-01  0.658E-02  0.593E-02
  -4.069  0.413E-01  0.409E-02  0.145E-01  0.129E-01  0.523E-02  0.453E-02
  -4.059  0.410E-01  0.424E-02  0.142E-01  0.130E-01  0.509E-02  0.445E-02
  -4.049  0.406E-01  0.442E-02  0.138E-01  0.130E-01  0.495E-02  0.441E-02
  -4.039  0.402E-01  0.461E-02  0.134E-01  0.130E-01  0.480E-02  0.440E-02
  -4.029  0.397E-01  0.481E-02  0.130E-01  0.128E-01  0.464E-02  0.443E-02
  -4.019  0.392E-01  0.503E-02  0.126E-01  0.126E-01  0.447E-02  0.450E-02
  -4.009  0.386E-01  0.527E-02  0.121E-01  0.124E-01  0.430E-02  0.461E-02
  -3.999  0.380E-01  0.552E-02  0.116E-01  0.120E-01  0.411E-02  0.475E-02
  -3.989  0.472E-01  0.714E-02  0.139E-01  0.156E-01  0.481E-02  0.578E-02
  -3.979  0.485E-01  0.596E-02  0.141E-01  0.154E-01  0.587E-02  0.720E-02
  -3.969  0.490E-01  0.490E-02  0.142E-01  0.153E-01  0.654E-02  0.810E-02
  -3.959  0.159E+00  0.413E-02  0.649E-01  0.744E-01  0.718E-02  0.877E-02
  -3.949  0.154E+00  0.470E-02  0.615E-01  0.702E-01  0.831E-02  0.960E-02
  -3.939  0.191E+00  0.518E-02  0.587E-01  0.670E-01  0.301E-01  0.299E-01
  -3.929  0.196E+00  0.255E-02  0.578E-01  0.660E-01  0.352E-01  0.344E-01
  -3.919  0.188E+00  0.232E-02  0.580E-01  0.664E-01  0.316E-01  0.294E-01
  -3.909  0.181E+00  0.219E-02  0.594E-01  0.685E-01  0.273E-01  0.242E-01
  -3.899  0.178E+00  0.216E-02  0.619E-01  0.724E-01  0.225E-01  0.190E-01
  -3.889  0.180E+00  0.218E-02  0.654E-01  0.773E-01  0.190E-01  0.162E-01
  -3.879  0.181E+00  0.218E-02  0.686E-01  0.812E-01  0.156E-01  0.135E-01
  -3.869  0.181E+00  0.218E-02  0.715E-01  0.837E-01  0.125E-01  0.109E-01
  -3.859  0.179E+00  0.218E-02  0.741E-01  0.848E-01  0.952E-02  0.843E-02
  -3.849  0.172E+00  0.216E-02  0.746E-01  0.825E-01  0.682E-02  0.614E-02
  -3.839  0.140E+00  0.209E-02  0.636E-01  0.662E-01  0.439E-02  0.403E-02
  -3.829  0.102E+00  0.199E-02  0.491E-01  0.458E-01  0.251E-02  0.236E-02
  -3.819  0.681E-01  0.190E-02  0.356E-01  0.282E-01  0.123E-02  0.118E-02
  -3.809  0.339E-01  0.994E-03  0.156E-01  0.158E-01  0.804E-03  0.759E-03
  -3.799  0.366E-01  0.116E-02  0.159E-01  0.180E-01  0.802E-03  0.753E-03
  -3.789  0.448E-01  0.187E-02  0.186E-01  0.221E-01  0.115E-02  0.108E-02
  -3.779  0.595E-01  0.268E-02  0.248E-01  0.281E-01  0.204E-02  0.194E-02
  -3.769  0.779E-01  0.337E-02  0.326E-01  0.351E-01  0.349E-02  0.335E-02
  -3.759  0.100E+00  0.394E-02  0.423E-01  0.433E-01  0.550E-02  0.531E-02
  -3.749  0.128E+00  0.440E-02  0.541E-01  0.535E-01  0.807E-02  0.781E-02
  -3.739  0.169E+00  0.400E-02  0.766E-01  0.730E-01  0.794E-02  0.779E-02
  -3.729  0.827E-01  0.314E-02  0.308E-01  0.289E-01  0.100E-01  0.986E-02
  -3.719  0.699E-01  0.274E-02  0.227E-01  0.222E-01  0.112E-01  0.110E-01
  -3.709  0.656E-01  0.250E-02  0.204E-01  0.197E-01  0.116E-01  0.114E-01
  -3.699  0.953E-01  0.230E-02  0.186E-01  0.179E-01  0.290E-01  0.276E-01
  -3.689  0.165E+00  0.233E-02  0.175E-01  0.167E-01  0.656E-01  0.634E-01
  -3.679  0.578E-01  0.239E-02  0.172E-01  0.164E-01  0.110E-01  0.108E-01
  -3.669  0.581E-01  0.276E-02  0.177E-01  0.169E-01  0.104E-01  0.103E-01
  -3.659  0.588E-01  0.324E-02  0.186E-01  0.177E-01  0.970E-02  0.957E-02
  -3.649  0.598E-01  0.384E-02  0.198E-01  0.187E-01  0.879E-02  0.866E-02
  -3.639  0.613E-01  0.455E-02  0.214E-01  0.201E-01  0.769E-02  0.757E-02
  -3.629  0.531E-01  0.176E-02  0.203E-01  0.183E-01  0.642E-02  0.631E-02
  -3.619  0.547E-01  0.169E-02  0.221E-01  0.195E-01  0.577E-02  0.568E-02
  -3.609  0.579E-01  0.174E-02  0.244E-01  0.208E-01  0.550E-02  0.540E-02
  -3.599  0.608E-01  0.178E-02  0.264E-01  0.220E-01  0.534E-02  0.523E-02
  -3.589  0.635E-01  0.183E-02  0.282E-01  0.230E-01  0.528E-02  0.515E-02
  -3.579  0.660E-01  0.189E-02  0.298E-01  0.239E-01  0.532E-02  0.517E-02
  -3.569  0.683E-01  0.195E-02  0.311E-01  0.246E-01  0.547E-02  0.529E-02
  -3.559  0.704E-01  0.201E-02  0.321E-01  0.251E-01  0.573E-02  0.551E-02
  -3.549  0.726E-01  0.207E-02  0.329E-01  0.254E-01  0.622E-02  0.600E-02
  -3.539  0.790E-01  0.220E-02  0.337E-01  0.257E-01  0.855E-02  0.879E-02
  -3.529  0.846E-01  0.244E-02  0.347E-01  0.262E-01  0.104E-01  0.109E-01
  -3.519  0.911E-01  0.278E-02  0.365E-01  0.274E-01  0.120E-01  0.124E-01
  -3.509  0.103E+00  0.328E-02  0.412E-01  0.311E-01  0.140E-01  0.135E-01
  -3.499  0.118E+00  0.397E-02  0.486E-01  0.373E-01  0.146E-01  0.136E-01
  -3.489  0.109E+00  0.276E-02  0.497E-01  0.398E-01  0.884E-02  0.783E-02
  -3.479  0.126E+00  0.303E-02  0.596E-01  0.487E-01  0.748E-02  0.703E-02
  -3.469  0.720E-01  0.226E-02  0.300E-01  0.261E-01  0.701E-02  0.659E-02
  -3.459  0.689E-01  0.228E-02  0.286E-01  0.249E-01  0.679E-02  0.635E-02
  -3.449  0.659E-01  0.229E-02  0.271E-01  0.237E-01  0.658E-02  0.613E-02
  -3.439  0.628E-01  0.229E-02  0.256E-01  0.225E-01  0.640E-02  0.594E-02
  -3.429  0.597E-01  0.229E-02  0.241E-01  0.213E-01  0.624E-02  0.577E-02
  -3.419  0.565E-01  0.229E-02  0.225E-01  0.200E-01  0.609E-02  0.563E-02
  -3.409  0.534E-01  0.227E-02  0.209E-01  0.187E-01  0.597E-02  0.551E-02
  -3.399  0.502E-01  0.226E-02  0.193E-01  0.174E-01  0.587E-02  0.541E-02
  -3.389  0.470E-01  0.224E-02  0.176E-01  0.160E-01  0.579E-02  0.533E-02
  -3.379  0.438E-01  0.221E-02  0.159E-01  0.147E-01  0.573E-02  0.528E-02
  -3.369  0.417E-01  0.218E-02  0.142E-01  0.133E-01  0.624E-02  0.577E-02
  -3.359  0.433E-01  0.214E-02  0.134E-01  0.134E-01  0.741E-02  0.688E-02
  -3.349  0.456E-01  0.213E-02  0.133E-01  0.141E-01  0.831E-02  0.775E-02
  -3.339  0.459E-01  0.210E-02  0.136E-01  0.150E-01  0.780E-02  0.729E-02
  -3.329  0.461E-01  0.208E-02  0.141E-01  0.161E-01  0.712E-02  0.667E-02
  -3.319  0.466E-01  0.205E-02  0.148E-01  0.172E-01  0.648E-02  0.607E-02
  -3.309  0.475E-01  0.203E-02  0.157E-01  0.184E-01  0.588E-02  0.552E-02
  -3.299  0.487E-01  0.201E-02  0.168E-01  0.196E-01  0.532E-02  0.500E-02
  -3.289  0.502E-01  0.199E-02  0.180E-01  0.209E-01  0.480E-02  0.451E-02
  -3.279  0.523E-01  0.196E-02  0.195E-01  0.224E-01  0.433E-02  0.406E-02
  -3.269  0.548E-01  0.194E-02  0.213E-01  0.240E-01  0.389E-02  0.364E-02
  -3.259  0.674E-01  0.196E-02  0.324E-01  0.249E-01  0.421E-02  0.396E-02
  -3.249  0.712E-01  0.197E-02  0.386E-01  0.266E-01  0.207E-02  0.196E-02
  -3.239  0.635E-01  0.193E-02  0.352E-01  0.250E-01  0.688E-03  0.655E-03
  -3.229  0.443E-01  0.185E-02  0.221E-01  0.202E-01  0.758E-04  0.732E-04
  -3.219  0.399E-01  0.181E-02  0.187E-01  0.193E-01  0.582E-04  0.540E-04
  -3.209  0.409E-01  0.178E-02  0.192E-01  0.199E-01  0.578E-04  0.534E-04
  -3.199  0.420E-01  0.174E-02  0.197E-01  0.204E-01  0.577E-04  0.533E-04
  -3.189  0.431E-01  0.170E-02  0.202E-01  0.210E-01  0.580E-04  0.535E-04
  -3.179  0.442E-01  0.165E-02  0.208E-01  0.217E-01  0.585E-04  0.540E-04
  -3.169  0.454E-01  0.161E-02  0.213E-01  0.223E-01  0.592E-04  0.548E-04
  -3.159  0.466E-01  0.155E-02  0.219E-01  0.230E-01  0.599E-04  0.555E-04
  -3.149  0.479E-01  0.149E-02  0.225E-01  0.238E-01  0.607E-04  0.564E-04
  -3.139  0.469E-01  0.148E-02  0.219E-01  0.234E-01  0.603E-04  0.555E-04
  -3.129  0.471E-01  0.147E-02  0.220E-01  0.236E-01  0.607E-04  0.555E-04
  -3.119  0.478E-01  0.147E-02  0.222E-01  0.241E-01  0.614E-04  0.558E-04
  -3.109  0.490E-01  0.148E-02  0.226E-01  0.247E-01  0.624E-04  0.562E-04
  -3.099  0.500E-01  0.149E-02  0.230E-01  0.253E-01  0.634E-04  0.566E-04
  -3.089  0.509E-01  0.150E-02  0.233E-01  0.259E-01  0.646E-04  0.572E-04
  -3.079  0.517E-01  0.151E-02  0.236E-01  0.265E-01  0.658E-04  0.578E-04
  -3.069  0.525E-01  0.153E-02  0.238E-01  0.270E-01  0.672E-04  0.585E-04
  -3.059  0.529E-01  0.152E-02  0.238E-01  0.274E-01  0.681E-04  0.577E-04
  -3.049  0.529E-01  0.151E-02  0.236E-01  0.277E-01  0.689E-04  0.564E-04
  -3.039  0.522E-01  0.141E-02  0.231E-01  0.276E-01  0.660E-04  0.535E-04
  -3.029  0.535E-01  0.172E-02  0.232E-01  0.285E-01  0.803E-04  0.620E-04
  -3.019  0.110E+00  0.177E-02  0.437E-01  0.643E-01  0.102E-03  0.119E-03
  -3.009  0.423E-01  0.148E-02  0.186E-01  0.220E-01  0.670E-04  0.493E-04
  -2.999  0.422E-01  0.142E-02  0.186E-01  0.221E-01  0.656E-04  0.490E-04
  -2.989  0.424E-01  0.135E-02  0.187E-01  0.222E-01  0.642E-04  0.487E-04
  -2.979  0.426E-01  0.128E-02  0.189E-01  0.223E-01  0.626E-04  0.485E-04
  -2.969  0.430E-01  0.121E-02  0.192E-01  0.225E-01  0.610E-04  0.484E-04
  -2.959  0.435E-01  0.114E-02  0.195E-01  0.227E-01  0.592E-04  0.483E-04
  -2.949  0.516E-01  0.111E-02  0.243E-01  0.262E-01  0.580E-04  0.492E-04
  -2.939  0.501E-01  0.109E-02  0.233E-01  0.255E-01  0.586E-04  0.508E-04
  -2.929  0.492E-01  0.108E-02  0.228E-01  0.252E-01  0.594E-04  0.527E-04
  -2.919  0.488E-01  0.106E-02  0.225E-01  0.252E-01  0.601E-04  0.546E-04
  -2.909  0.600E-01  0.139E-02  0.280E-01  0.305E-01  0.775E-04  0.676E-04
  -2.899  0.589E-01  0.125E-02  0.278E-01  0.298E-01  0.723E-04  0.669E-04
  -2.889  0.481E-01  0.107E-02  0.253E-01  0.215E-01  0.604E-04  0.623E-04
  -2.879  0.462E-01  0.948E-03  0.254E-01  0.197E-01  0.547E-04  0.609E-04
  -2.869  0.391E-01  0.819E-03  0.217E-01  0.165E-01  0.455E-04  0.479E-04
  -2.859  0.314E-01  0.775E-03  0.173E-01  0.133E-01  0.409E-04  0.385E-04
  -2.849  0.293E-01  0.912E-03  0.164E-01  0.119E-01  0.466E-04  0.430E-04
  -2.839  0.271E-01  0.113E-02  0.152E-01  0.107E-01  0.549E-04  0.512E-04
  -2.829  0.247E-01  0.140E-02  0.137E-01  0.946E-02  0.631E-04  0.613E-04
  -2.819  0.220E-01  0.164E-02  0.120E-01  0.826E-02  0.696E-04  0.705E-04
  -2.809  0.192E-01  0.187E-02  0.100E-01  0.712E-02  0.759E-04  0.795E-04
  -2.799  0.264E-01  0.219E-02  0.143E-01  0.982E-02  0.846E-04  0.901E-04
  -2.789  0.120E+00  0.371E-02  0.756E-01  0.408E-01  0.186E-03  0.221E-03
  -2.779  0.300E-01  0.281E-02  0.158E-01  0.112E-01  0.966E-04  0.104E-03
  -2.769  0.367E-01  0.337E-02  0.193E-01  0.138E-01  0.114E-03  0.124E-03
  -2.759  0.417E-01  0.396E-02  0.217E-01  0.158E-01  0.133E-03  0.145E-03
  -2.749  0.475E-01  0.456E-02  0.241E-01  0.185E-01  0.171E-03  0.181E-03
  -2.739  0.512E-01  0.506E-02  0.259E-01  0.199E-01  0.182E-03  0.202E-03
  -2.729  0.547E-01  0.554E-02  0.276E-01  0.212E-01  0.196E-03  0.227E-03
  -2.719  0.580E-01  0.601E-02  0.291E-01  0.224E-01  0.214E-03  0.256E-03
  -2.709  0.105E+00  0.423E-01  0.337E-01  0.259E-01  0.153E-02  0.196E-02
  -2.699  0.725E-01  0.116E-01  0.332E-01  0.266E-01  0.575E-03  0.624E-03
  -2.689  0.744E-01  0.119E-01  0.342E-01  0.273E-01  0.450E-03  0.530E-03
  -2.679  0.849E-01  0.187E-01  0.361E-01  0.290E-01  0.531E-03  0.683E-03
  -2.669  0.976E-01  0.242E-01  0.394E-01  0.326E-01  0.621E-03  0.832E-03
  -2.659  0.153E+00  0.285E-01  0.673E-01  0.556E-01  0.748E-03  0.100E-02
  -2.649  0.990E-01  0.306E-01  0.339E-01  0.327E-01  0.792E-03  0.106E-02
  -2.639  0.628E-01  0.321E-01  0.148E-01  0.135E-01  0.101E-02  0.135E-02
  -2.629  0.521E-01  0.236E-01  0.148E-01  0.119E-01  0.747E-03  0.104E-02
  -2.619  0.693E-01  0.366E-01  0.178E-01  0.137E-01  0.533E-03  0.656E-03
  -2.609  0.422E-01  0.118E-01  0.168E-01  0.132E-01  0.216E-03  0.280E-03
  -2.599  0.449E-01  0.100E-01  0.195E-01  0.150E-01  0.184E-03  0.228E-03
  -2.589  0.750E-01  0.873E-02  0.373E-01  0.286E-01  0.175E-03  0.206E-03
  -2.579  0.703E-01  0.702E-02  0.355E-01  0.274E-01  0.156E-03  0.178E-03
  -2.569  0.659E-01  0.520E-02  0.340E-01  0.264E-01  0.142E-03  0.155E-03
  -2.559  0.102E+00  0.531E-02  0.539E-01  0.424E-01  0.286E-03  0.264E-03
  -2.549  0.401E-01  0.142E-02  0.214E-01  0.171E-01  0.566E-04  0.720E-04
  -2.539  0.624E-01  0.452E-02  0.303E-01  0.271E-01  0.288E-03  0.220E-03
  -2.529  0.648E-01  0.406E-02  0.284E-01  0.321E-01  0.142E-03  0.159E-03
  -2.519  0.527E-01  0.404E-02  0.232E-01  0.252E-01  0.137E-03  0.161E-03
  -2.509  0.550E-01  0.877E-02  0.225E-01  0.231E-01  0.292E-03  0.282E-03
  -2.499  0.450E-01  0.884E-02  0.176E-01  0.180E-01  0.314E-03  0.298E-03
  -2.489  0.359E-01  0.884E-02  0.131E-01  0.133E-01  0.333E-03  0.308E-03
  -2.479  0.277E-01  0.877E-02  0.899E-02  0.926E-02  0.349E-03  0.309E-03
  -2.469  0.231E-01  0.863E-02  0.686E-02  0.693E-02  0.361E-03  0.304E-03
  -2.459  0.195E-01  0.841E-02  0.524E-02  0.520E-02  0.370E-03  0.290E-03
  -2.449  0.168E-01  0.810E-02  0.406E-02  0.403E-02  0.376E-03  0.268E-03
  -2.439  0.151E-01  0.777E-02  0.332E-02  0.342E-02  0.380E-03  0.241E-03
  -2.429  0.146E-01  0.798E-02  0.282E-02  0.309E-02  0.421E-03  0.256E-03
  -2.419  0.154E-01  0.928E-02  0.256E-02  0.284E-02  0.440E-03  0.318E-03
  -2.409  0.204E-01  0.132E-01  0.317E-02  0.315E-02  0.452E-03  0.470E-03
  -2.399  0.260E-01  0.168E-01  0.436E-02  0.392E-02  0.403E-03  0.581E-03
  -2.389  0.463E-01  0.289E-01  0.926E-02  0.642E-02  0.609E-03  0.104E-02
  -2.379  0.639E-01  0.202E-01  0.230E-01  0.181E-01  0.131E-02  0.123E-02
  -2.369  0.276E-01  0.909E-02  0.931E-02  0.843E-02  0.332E-03  0.445E-03
  -2.359  0.253E-01  0.542E-02  0.984E-02  0.945E-02  0.260E-03  0.330E-03
  -2.349  0.646E-01  0.325E-01  0.160E-01  0.134E-01  0.112E-02  0.154E-02
  -2.339  0.399E-01  0.225E-01  0.899E-02  0.674E-02  0.722E-03  0.101E-02
  -2.329  0.300E-01  0.145E-01  0.807E-02  0.661E-02  0.369E-03  0.479E-03
  -2.319  0.232E-01  0.778E-02  0.765E-02  0.709E-02  0.303E-03  0.374E-03
  -2.309  0.243E-01  0.621E-02  0.904E-02  0.843E-02  0.281E-03  0.325E-03
  -2.299  0.249E-01  0.402E-02  0.105E-01  0.989E-02  0.228E-03  0.241E-03
  -2.289  0.228E-01  0.255E-02  0.976E-02  0.102E-01  0.174E-03  0.170E-03
  -2.279  0.231E-01  0.245E-02  0.952E-02  0.108E-01  0.157E-03  0.155E-03
  -2.269  0.238E-01  0.240E-02  0.983E-02  0.113E-01  0.140E-03  0.142E-03
  -2.259  0.215E-01  0.250E-02  0.885E-02  0.991E-02  0.132E-03  0.140E-03
  -2.249  0.203E-01  0.293E-02  0.805E-02  0.898E-02  0.147E-03  0.160E-03
  -2.239  0.203E-01  0.356E-02  0.778E-02  0.864E-02  0.175E-03  0.188E-03
  -2.229  0.204E-01  0.420E-02  0.750E-02  0.827E-02  0.203E-03  0.216E-03
  -2.219  0.204E-01  0.483E-02  0.719E-02  0.788E-02  0.231E-03  0.245E-03
  -2.209  0.203E-01  0.547E-02  0.686E-02  0.745E-02  0.259E-03  0.274E-03
  -2.199  0.202E-01  0.611E-02  0.652E-02  0.700E-02  0.288E-03  0.303E-03
  -2.189  0.201E-01  0.675E-02  0.615E-02  0.651E-02  0.317E-03  0.332E-03
  -2.179  0.366E-01  0.167E-01  0.996E-02  0.850E-02  0.725E-03  0.789E-03
  -2.169  0.107E-01  0.281E-02  0.311E-02  0.451E-02  0.160E-03  0.141E-03
  -2.159  0.162E-01  0.668E-02  0.409E-02  0.482E-02  0.343E-03  0.290E-03
  -2.149  0.279E-01  0.135E-01  0.640E-02  0.679E-02  0.630E-03  0.562E-03
  -2.139  0.347E-01  0.164E-01  0.841E-02  0.844E-02  0.781E-03  0.712E-03
  -2.129  0.349E-01  0.167E-01  0.884E-02  0.783E-02  0.777E-03  0.741E-03
  -2.119  0.197E-01  0.133E-01  0.310E-02  0.220E-02  0.508E-03  0.568E-03
  -2.109  0.184E-01  0.124E-01  0.293E-02  0.211E-02  0.467E-03  0.536E-03
  -2.099  0.258E-01  0.180E-01  0.336E-02  0.244E-02  0.923E-03  0.107E-02
  -2.089  0.809E-02  0.402E-02  0.178E-02  0.181E-02  0.237E-03  0.240E-03
  -2.079  0.781E-02  0.367E-02  0.181E-02  0.188E-02  0.226E-03  0.231E-03
  -2.069  0.752E-02  0.333E-02  0.182E-02  0.193E-02  0.217E-03  0.223E-03
  -2.059  0.723E-02  0.302E-02  0.181E-02  0.197E-02  0.207E-03  0.216E-03
  -2.049  0.105E-01  0.326E-02  0.320E-02  0.361E-02  0.232E-03  0.233E-03
  -2.039  0.939E-02  0.327E-02  0.267E-02  0.298E-02  0.231E-03  0.238E-03
  -2.029  0.840E-02  0.329E-02  0.221E-02  0.243E-02  0.229E-03  0.242E-03
  -2.019  0.783E-02  0.353E-02  0.184E-02  0.196E-02  0.237E-03  0.256E-03
  -2.009  0.713E-02  0.356E-02  0.150E-02  0.156E-02  0.238E-03  0.262E-03
  -1.999  0.657E-02  0.360E-02  0.123E-02  0.124E-02  0.239E-03  0.268E-03
  -1.989  0.617E-02  0.365E-02  0.102E-02  0.985E-03  0.240E-03  0.274E-03
  -1.979  0.591E-02  0.370E-02  0.880E-03  0.811E-03  0.240E-03  0.280E-03
  -1.969  0.582E-02  0.377E-02  0.807E-03  0.716E-03  0.242E-03  0.286E-03
  -1.959  0.581E-02  0.385E-02  0.764E-03  0.653E-03  0.246E-03  0.293E-03
  -1.949  0.582E-02  0.394E-02  0.729E-03  0.596E-03  0.250E-03  0.300E-03
  -1.939  0.585E-02  0.404E-02  0.700E-03  0.546E-03  0.254E-03  0.307E-03
  -1.929  0.589E-02  0.414E-02  0.679E-03  0.501E-03  0.258E-03  0.314E-03
  -1.919  0.595E-02  0.424E-02  0.666E-03  0.463E-03  0.262E-03  0.321E-03
  -1.909  0.106E-01  0.764E-02  0.146E-02  0.736E-03  0.407E-03  0.395E-03
  -1.899  0.148E-01  0.106E-01  0.210E-02  0.102E-02  0.547E-03  0.503E-03
  -1.889  0.176E-01  0.126E-01  0.243E-02  0.126E-02  0.659E-03  0.634E-03
  -1.879  0.192E-01  0.137E-01  0.248E-02  0.149E-02  0.743E-03  0.791E-03
  -1.869  0.179E-01  0.110E-01  0.295E-02  0.220E-02  0.842E-03  0.884E-03
  -1.859  0.192E-01  0.119E-01  0.276E-02  0.190E-02  0.116E-02  0.140E-02
  -1.849  0.244E-01  0.137E-01  0.465E-02  0.280E-02  0.135E-02  0.195E-02
  -1.839  0.934E-01  0.579E-01  0.188E-01  0.102E-01  0.305E-02  0.353E-02
  -1.829  0.154E-01  0.945E-02  0.331E-02  0.154E-02  0.588E-03  0.533E-03
  -1.819  0.135E-01  0.820E-02  0.299E-02  0.134E-02  0.497E-03  0.458E-03
  -1.809  0.112E-01  0.678E-02  0.253E-02  0.111E-02  0.402E-03  0.376E-03
  -1.799  0.894E-02  0.544E-02  0.201E-02  0.880E-03  0.317E-03  0.298E-03
  -1.789  0.852E-02  0.518E-02  0.192E-02  0.819E-03  0.305E-03  0.285E-03
  -1.779  0.810E-02  0.494E-02  0.184E-02  0.762E-03  0.292E-03  0.273E-03
  -1.769  0.771E-02  0.471E-02  0.175E-02  0.709E-03  0.280E-03  0.262E-03
  -1.759  0.733E-02  0.448E-02  0.166E-02  0.659E-03  0.268E-03  0.251E-03
  -1.749  0.696E-02  0.427E-02  0.158E-02  0.614E-03  0.256E-03  0.241E-03
  -1.739  0.661E-02  0.407E-02  0.150E-02  0.572E-03  0.245E-03  0.231E-03
  -1.729  0.627E-02  0.387E-02  0.141E-02  0.535E-03  0.233E-03  0.222E-03
  -1.719  0.595E-02  0.369E-02  0.133E-02  0.501E-03  0.222E-03  0.214E-03
  -1.709  0.565E-02  0.351E-02  0.125E-02  0.471E-03  0.211E-03  0.206E-03
  -1.699  0.571E-02  0.354E-02  0.128E-02  0.481E-03  0.207E-03  0.209E-03
  -1.689  0.586E-02  0.361E-02  0.133E-02  0.501E-03  0.205E-03  0.214E-03
  -1.679  0.602E-02  0.368E-02  0.140E-02  0.522E-03  0.202E-03  0.220E-03
  -1.669  0.619E-02  0.375E-02  0.147E-02  0.545E-03  0.199E-03  0.225E-03
  -1.659  0.636E-02  0.383E-02  0.154E-02  0.569E-03  0.194E-03  0.230E-03
  -1.649  0.654E-02  0.390E-02  0.162E-02  0.595E-03  0.189E-03  0.236E-03
  -1.639  0.602E-02  0.371E-02  0.146E-02  0.530E-03  0.140E-03  0.184E-03
  -1.629  0.617E-02  0.378E-02  0.148E-02  0.596E-03  0.142E-03  0.175E-03
  -1.619  0.760E-02  0.425E-02  0.181E-02  0.977E-03  0.287E-03  0.275E-03
  -1.609  0.954E-02  0.514E-02  0.218E-02  0.132E-02  0.478E-03  0.422E-03
  -1.599  0.120E-01  0.645E-02  0.257E-02  0.163E-02  0.713E-03  0.614E-03
  -1.589  0.156E-01  0.854E-02  0.315E-02  0.200E-02  0.104E-02  0.896E-03
  -1.579  0.289E-01  0.177E-01  0.522E-02  0.245E-02  0.174E-02  0.175E-02
  -1.569  0.771E-02  0.451E-02  0.128E-02  0.736E-03  0.661E-03  0.519E-03
  -1.559  0.478E-02  0.252E-02  0.113E-02  0.592E-03  0.281E-03  0.260E-03
  -1.549  0.251E-01  0.158E-01  0.352E-02  0.178E-02  0.178E-02  0.215E-02
  -1.539  0.119E-01  0.697E-02  0.219E-02  0.108E-02  0.828E-03  0.878E-03
  -1.529  0.105E-01  0.604E-02  0.199E-02  0.986E-03  0.737E-03  0.772E-03
  -1.519  0.922E-02  0.519E-02  0.180E-02  0.897E-03  0.655E-03  0.680E-03
  -1.509  0.803E-02  0.443E-02  0.160E-02  0.810E-03  0.581E-03  0.602E-03
  -1.499  0.694E-02  0.376E-02  0.141E-02  0.724E-03  0.516E-03  0.538E-03
  -1.489  0.597E-02  0.317E-02  0.122E-02  0.640E-03  0.460E-03  0.488E-03
  -1.479  0.511E-02  0.266E-02  0.103E-02  0.559E-03  0.412E-03  0.452E-03
  -1.469  0.436E-02  0.223E-02  0.847E-03  0.479E-03  0.372E-03  0.430E-03
  -1.459  0.395E-02  0.199E-02  0.744E-03  0.431E-03  0.350E-03  0.425E-03
  -1.449  0.415E-02  0.207E-02  0.796E-03  0.452E-03  0.368E-03  0.465E-03
  -1.439  0.468E-02  0.220E-02  0.947E-03  0.567E-03  0.435E-03  0.536E-03
  -1.429  0.486E-02  0.230E-02  0.985E-03  0.569E-03  0.443E-03  0.569E-03
  -1.419  0.507E-02  0.241E-02  0.103E-02  0.575E-03  0.452E-03  0.600E-03
  -1.409  0.529E-02  0.253E-02  0.108E-02  0.586E-03  0.462E-03  0.629E-03
  -1.399  0.552E-02  0.267E-02  0.113E-02  0.601E-03  0.472E-03  0.655E-03
  -1.389  0.578E-02  0.281E-02  0.119E-02  0.621E-03  0.483E-03  0.679E-03
  -1.379  0.605E-02  0.296E-02  0.125E-02  0.645E-03  0.494E-03  0.701E-03
  -1.369  0.641E-02  0.313E-02  0.135E-02  0.693E-03  0.521E-03  0.729E-03
  -1.359  0.680E-02  0.330E-02  0.145E-02  0.748E-03  0.551E-03  0.756E-03
  -1.349  0.721E-02  0.349E-02  0.155E-02  0.805E-03  0.583E-03  0.782E-03
  -1.339  0.763E-02  0.368E-02  0.166E-02  0.864E-03  0.616E-03  0.805E-03
  -1.329  0.806E-02  0.388E-02  0.178E-02  0.926E-03  0.649E-03  0.826E-03
  -1.319  0.487E-02  0.240E-02  0.102E-02  0.544E-03  0.400E-03  0.502E-03
  -1.309  0.486E-02  0.238E-02  0.103E-02  0.552E-03  0.404E-03  0.502E-03
  -1.299  0.485E-02  0.235E-02  0.103E-02  0.560E-03  0.408E-03  0.504E-03
  -1.289  0.484E-02  0.232E-02  0.103E-02  0.568E-03  0.412E-03  0.506E-03
  -1.279  0.482E-02  0.229E-02  0.103E-02  0.576E-03  0.417E-03  0.509E-03
  -1.269  0.480E-02  0.225E-02  0.103E-02  0.584E-03  0.423E-03  0.513E-03
  -1.259  0.478E-02  0.220E-02  0.103E-02  0.592E-03  0.429E-03  0.518E-03
  -1.249  0.479E-02  0.219E-02  0.104E-02  0.603E-03  0.433E-03  0.523E-03
  -1.239  0.476E-02  0.215E-02  0.105E-02  0.609E-03  0.429E-03  0.522E-03
  -1.229  0.469E-02  0.209E-02  0.105E-02  0.612E-03  0.423E-03  0.518E-03
  -1.219  0.460E-02  0.202E-02  0.104E-02  0.612E-03  0.415E-03  0.511E-03
  -1.209  0.451E-02  0.195E-02  0.104E-02  0.611E-03  0.407E-03  0.504E-03
  -1.199  0.441E-02  0.188E-02  0.103E-02  0.609E-03  0.399E-03  0.497E-03
  -1.189  0.432E-02  0.181E-02  0.102E-02  0.607E-03  0.391E-03  0.489E-03
  -1.179  0.422E-02  0.174E-02  0.101E-02  0.604E-03  0.383E-03  0.481E-03
  -1.169  0.412E-02  0.167E-02  0.996E-03  0.600E-03  0.374E-03  0.472E-03
  -1.159  0.402E-02  0.161E-02  0.982E-03  0.595E-03  0.366E-03  0.463E-03
  -1.149  0.391E-02  0.154E-02  0.967E-03  0.589E-03  0.357E-03  0.454E-03
  -1.139  0.381E-02  0.148E-02  0.951E-03  0.583E-03  0.348E-03  0.444E-03
  -1.129  0.370E-02  0.142E-02  0.934E-03  0.576E-03  0.339E-03  0.434E-03
  -1.119  0.359E-02  0.136E-02  0.915E-03  0.568E-03  0.330E-03  0.424E-03
  -1.109  0.349E-02  0.130E-02  0.895E-03  0.559E-03  0.321E-03  0.413E-03
  -1.099  0.341E-02  0.125E-02  0.885E-03  0.557E-03  0.316E-03  0.407E-03
  -1.089  0.339E-02  0.122E-02  0.885E-03  0.562E-03  0.315E-03  0.406E-03
  -1.079  0.335E-02  0.118E-02  0.885E-03  0.567E-03  0.315E-03  0.405E-03
  -1.069  0.332E-02  0.115E-02  0.883E-03  0.571E-03  0.315E-03  0.404E-03
  -1.059  0.329E-02  0.111E-02  0.880E-03  0.576E-03  0.315E-03  0.404E-03
  -1.049  0.325E-02  0.108E-02  0.875E-03  0.579E-03  0.316E-03  0.403E-03
  -1.039  0.321E-02  0.104E-02  0.869E-03  0.583E-03  0.317E-03  0.402E-03
  -1.029  0.317E-02  0.101E-02  0.862E-03  0.586E-03  0.318E-03  0.401E-03
  -1.019  0.313E-02  0.967E-03  0.853E-03  0.589E-03  0.320E-03  0.401E-03
  -1.009  0.309E-02  0.929E-03  0.843E-03  0.591E-03  0.322E-03  0.400E-03
  -0.999  0.304E-02  0.890E-03  0.832E-03  0.593E-03  0.325E-03  0.399E-03
  -0.989  0.299E-02  0.850E-03  0.819E-03  0.595E-03  0.327E-03  0.399E-03
  -0.979  0.294E-02  0.810E-03  0.805E-03  0.596E-03  0.331E-03  0.398E-03
  -0.969  0.289E-02  0.769E-03  0.789E-03  0.597E-03  0.334E-03  0.397E-03
  -0.959  0.283E-02  0.727E-03  0.772E-03  0.597E-03  0.338E-03  0.396E-03
  -0.949  0.254E-02  0.711E-03  0.723E-03  0.517E-03  0.256E-03  0.332E-03
  -0.939  0.241E-02  0.661E-03  0.680E-03  0.504E-03  0.242E-03  0.320E-03
  -0.929  0.228E-02  0.614E-03  0.639E-03  0.490E-03  0.229E-03  0.308E-03
  -0.919  0.215E-02  0.567E-03  0.598E-03  0.476E-03  0.216E-03  0.295E-03
  -0.909  0.203E-02  0.523E-03  0.558E-03  0.460E-03  0.203E-03  0.283E-03
  -0.899  0.190E-02  0.480E-03  0.519E-03  0.444E-03  0.191E-03  0.270E-03
  -0.889  0.178E-02  0.439E-03  0.481E-03  0.427E-03  0.178E-03  0.256E-03
  -0.879  0.166E-02  0.399E-03  0.444E-03  0.408E-03  0.166E-03  0.243E-03
  -0.869  0.154E-02  0.361E-03  0.409E-03  0.389E-03  0.154E-03  0.229E-03
  -0.859  0.143E-02  0.325E-03  0.374E-03  0.369E-03  0.142E-03  0.215E-03
  -0.849  0.131E-02  0.291E-03  0.340E-03  0.349E-03  0.131E-03  0.201E-03
  -0.839  0.120E-02  0.258E-03  0.308E-03  0.327E-03  0.119E-03  0.187E-03
  -0.829  0.109E-02  0.227E-03  0.276E-03  0.304E-03  0.108E-03  0.172E-03
  -0.819  0.979E-03  0.198E-03  0.246E-03  0.281E-03  0.972E-04  0.158E-03
  -0.809  0.872E-03  0.170E-03  0.216E-03  0.256E-03  0.864E-04  0.143E-03
  -0.799  0.766E-03  0.145E-03  0.188E-03  0.231E-03  0.759E-04  0.127E-03
  -0.789  0.663E-03  0.120E-03  0.160E-03  0.205E-03  0.656E-04  0.112E-03
  -0.779  0.561E-03  0.979E-04  0.134E-03  0.177E-03  0.554E-04  0.963E-04
  -0.769  0.461E-03  0.771E-04  0.109E-03  0.149E-03  0.455E-04  0.804E-04
  -0.759  0.363E-03  0.580E-04  0.843E-04  0.121E-03  0.358E-04  0.643E-04
  -0.749  0.267E-03  0.406E-04  0.610E-04  0.907E-04  0.262E-04  0.480E-04
  -0.739  0.172E-03  0.249E-04  0.388E-04  0.600E-04  0.169E-04  0.315E-04
  -0.729  0.794E-04  0.109E-04  0.176E-04  0.284E-04  0.780E-05  0.148E-04
  -0.719  0.000E+00  0.000E+00  0.000E+00  0.000E+00  0.000E+00  0.000E+00
  -0.709  0.000E+00  0.000E+00  0.000E+00  0.000E+00  0.000E+00  0.000E+00
  -0.699  0.000E+00  0.000E+00  0.000E+00  0.000E+00  0.000E+00  0.000E+00
  -0.689  0.000E+00  0.000E+00  0.000E+00  0.000E+00  0.000E+00  0.000E+00
  -0.679  0.000E+00  0.000E+00  0.000E+00  0.000E+00  0.000E+00  0.000E+00
  -0.669  0.000E+00  0.000E+00  0.000E+00  0.000E+00  0.000E+00  0.000E+00
  -0.659  0.000E+00  0.000E+00  0.000E+00  0.000E+00  0.000E+00  0.000E+00
  -0.649  0.000E+00  0.000E+00  0.000E+00  0.000E+00  0.000E+00  0.000E+00
  -0.639  0.000E+00  0.000E+00  0.000E+00  0.000E+00  0.000E+00  0.000E+00
  -0.629  0.000E+00  0.000E+00  0.000E+00  0.000E+00  0.000E+00  0.000E+00
  -0.619  0.747E-04  0.117E-04  0.418E-04  0.140E-04  0.180E-05  0.541E-05
  -0.609  0.455E-03  0.695E-04  0.255E-03  0.860E-04  0.111E-04  0.332E-04
  -0.599  0.838E-03  0.125E-03  0.471E-03  0.160E-03  0.207E-04  0.615E-04
  -0.589  0.125E-02  0.178E-03  0.692E-03  0.245E-03  0.422E-04  0.943E-04
  -0.579  0.171E-02  0.229E-03  0.920E-03  0.348E-03  0.822E-04  0.134E-03
  -0.569  0.219E-02  0.282E-03  0.115E-02  0.455E-03  0.122E-03  0.175E-03
  -0.559  0.267E-02  0.334E-03  0.139E-02  0.569E-03  0.162E-03  0.218E-03
  -0.549  0.316E-02  0.385E-03  0.163E-02  0.689E-03  0.201E-03  0.261E-03
  -0.539  0.367E-02  0.434E-03  0.187E-02  0.815E-03  0.240E-03  0.305E-03
  -0.529  0.418E-02  0.482E-03  0.212E-02  0.948E-03  0.278E-03  0.350E-03
  -0.519  0.470E-02  0.528E-03  0.238E-02  0.109E-02  0.316E-03  0.396E-03
  -0.509  0.524E-02  0.573E-03  0.264E-02  0.123E-02  0.354E-03  0.442E-03
  -0.499  0.578E-02  0.616E-03  0.290E-02  0.138E-02  0.392E-03  0.490E-03
  -0.489  0.633E-02  0.658E-03  0.317E-02  0.154E-02  0.429E-03  0.538E-03
  -0.479  0.690E-02  0.699E-03  0.344E-02  0.170E-02  0.466E-03  0.588E-03
  -0.469  0.747E-02  0.737E-03  0.371E-02  0.188E-02  0.502E-03  0.638E-03
  -0.459  0.805E-02  0.775E-03  0.400E-02  0.205E-02  0.539E-03  0.689E-03
  -0.449  0.864E-02  0.811E-03  0.428E-02  0.223E-02  0.575E-03  0.741E-03
  -0.439  0.924E-02  0.845E-03  0.457E-02  0.242E-02  0.610E-03  0.794E-03
  -0.429  0.985E-02  0.878E-03  0.486E-02  0.262E-02  0.645E-03  0.848E-03
  -0.419  0.252E-01  0.226E-02  0.136E-01  0.618E-02  0.115E-02  0.209E-02
  -0.409  0.259E-01  0.234E-02  0.137E-01  0.647E-02  0.123E-02  0.213E-02
  -0.399  0.274E-01  0.247E-02  0.142E-01  0.705E-02  0.142E-02  0.226E-02
  -0.389  0.286E-01  0.255E-02  0.147E-01  0.747E-02  0.149E-02  0.233E-02
  -0.379  0.299E-01  0.262E-02  0.154E-01  0.792E-02  0.156E-02  0.242E-02
  -0.369  0.314E-01  0.269E-02  0.162E-01  0.840E-02  0.163E-02  0.252E-02
  -0.359  0.388E-01  0.331E-02  0.201E-01  0.104E-01  0.193E-02  0.308E-02
  -0.349  0.103E+00  0.838E-02  0.552E-01  0.274E-01  0.410E-02  0.781E-02
  -0.339  0.205E+00  0.159E-01  0.112E+00  0.548E-01  0.736E-02  0.153E-01
  -0.329  0.309E+00  0.230E-01  0.170E+00  0.825E-01  0.105E-01  0.227E-01
  -0.319  0.154E+00  0.111E-01  0.853E-01  0.406E-01  0.541E-02  0.114E-01
  -0.309  0.154E+00  0.107E-01  0.863E-01  0.398E-01  0.528E-02  0.114E-01
  -0.299  0.152E+00  0.103E-01  0.865E-01  0.384E-01  0.514E-02  0.114E-01
  -0.289  0.903E-01  0.596E-02  0.509E-01  0.233E-01  0.332E-02  0.680E-02
  -0.279  0.114E-01  0.648E-03  0.406E-02  0.495E-02  0.904E-03  0.804E-03
  -0.269  0.122E-01  0.676E-03  0.438E-02  0.534E-02  0.923E-03  0.841E-03
  -0.259  0.462E-01  0.264E-02  0.164E-01  0.200E-01  0.378E-02  0.342E-02
  -0.249  0.532E-01  0.311E-02  0.183E-01  0.238E-01  0.422E-02  0.375E-02
  -0.239  0.644E-01  0.390E-02  0.213E-01  0.299E-01  0.498E-02  0.431E-02
  -0.229  0.146E+00  0.102E-01  0.481E-01  0.663E-01  0.114E-01  0.991E-02
  -0.219  0.258E-02  0.940E-04  0.101E-02  0.140E-02  0.291E-04  0.382E-04
  -0.209  0.272E-02  0.953E-04  0.107E-02  0.148E-02  0.306E-04  0.397E-04
  -0.199  0.287E-02  0.965E-04  0.113E-02  0.157E-02  0.320E-04  0.412E-04
  -0.189  0.301E-02  0.976E-04  0.119E-02  0.165E-02  0.335E-04  0.428E-04
  -0.179  0.317E-02  0.986E-04  0.125E-02  0.173E-02  0.351E-04  0.444E-04
  -0.169  0.332E-02  0.996E-04  0.132E-02  0.182E-02  0.366E-04  0.460E-04
  -0.159  0.348E-02  0.100E-03  0.138E-02  0.191E-02  0.382E-04  0.476E-04
  -0.149  0.365E-02  0.101E-03  0.145E-02  0.201E-02  0.399E-04  0.493E-04
  -0.139  0.381E-02  0.102E-03  0.152E-02  0.210E-02  0.415E-04  0.510E-04
  -0.129  0.398E-02  0.103E-03  0.159E-02  0.220E-02  0.432E-04  0.527E-04
  -0.119  0.416E-02  0.103E-03  0.166E-02  0.230E-02  0.450E-04  0.544E-04
  -0.109  0.179E-01  0.125E-03  0.607E-02  0.115E-01  0.132E-03  0.139E-03
  -0.099  0.342E-01  0.226E-03  0.113E-01  0.221E-01  0.272E-03  0.255E-03
  -0.089  0.722E-01  0.396E-02  0.246E-01  0.409E-01  0.174E-02  0.102E-02
  -0.079  0.143E+00  0.138E-01  0.518E-01  0.692E-01  0.531E-02  0.299E-02
  -0.069  0.336E+00  0.321E-01  0.127E+00  0.157E+00  0.119E-01  0.757E-02
  -0.059  0.601E+00  0.880E-01  0.211E+00  0.247E+00  0.343E-01  0.211E-01
  -0.049  0.244E+00  0.194E-01  0.120E+00  0.936E-01  0.658E-02  0.449E-02
  -0.039  0.231E+00  0.207E-01  0.120E+00  0.805E-01  0.644E-02  0.355E-02
  -0.029  0.177E+00  0.216E-01  0.766E-01  0.683E-01  0.736E-02  0.343E-02
  -0.019  0.301E+00  0.246E-01  0.137E+00  0.125E+00  0.931E-02  0.451E-02
  -0.009  0.309E+00  0.194E-01  0.155E+00  0.123E+00  0.760E-02  0.415E-02
   0.001  0.281E+00  0.171E-01  0.152E+00  0.102E+00  0.644E-02  0.388E-02
   0.011  0.263E+00  0.154E-01  0.148E+00  0.903E-01  0.579E-02  0.371E-02
   0.021  0.245E+00  0.122E-01  0.136E+00  0.881E-01  0.505E-02  0.336E-02
   0.031  0.202E+00  0.867E-02  0.102E+00  0.842E-01  0.452E-02  0.272E-02
   0.041  0.195E+00  0.780E-02  0.902E-01  0.892E-01  0.495E-02  0.257E-02
   0.051  0.238E+00  0.854E-02  0.110E+00  0.111E+00  0.594E-02  0.310E-02
   0.061  0.380E+00  0.130E-01  0.175E+00  0.178E+00  0.965E-02  0.499E-02
   0.071  0.521E+00  0.237E-02  0.277E+00  0.232E+00  0.567E-02  0.432E-02
   0.081  0.104E+00  0.419E-03  0.580E-01  0.440E-01  0.900E-03  0.799E-03
   0.091  0.102E-01  0.349E-03  0.716E-02  0.247E-02  0.684E-04  0.107E-03
   0.101  0.100E-01  0.350E-03  0.707E-02  0.245E-02  0.684E-04  0.107E-03
   0.111  0.992E-02  0.350E-03  0.697E-02  0.242E-02  0.685E-04  0.106E-03
   0.121  0.980E-02  0.351E-03  0.688E-02  0.240E-02  0.685E-04  0.105E-03
   0.131  0.967E-02  0.351E-03  0.678E-02  0.237E-02  0.686E-04  0.104E-03
   0.141  0.954E-02  0.352E-03  0.667E-02  0.234E-02  0.687E-04  0.104E-03
   0.151  0.940E-02  0.353E-03  0.657E-02  0.231E-02  0.688E-04  0.103E-03
   0.161  0.927E-02  0.353E-03  0.646E-02  0.228E-02  0.689E-04  0.102E-03
   0.171  0.912E-02  0.354E-03  0.634E-02  0.225E-02  0.690E-04  0.101E-03
   0.181  0.897E-02  0.354E-03  0.623E-02  0.222E-02  0.691E-04  0.100E-03
   0.191  0.882E-02  0.354E-03  0.611E-02  0.219E-02  0.692E-04  0.992E-04
   0.201  0.867E-02  0.355E-03  0.598E-02  0.216E-02  0.693E-04  0.982E-04
   0.211  0.851E-02  0.355E-03  0.586E-02  0.213E-02  0.695E-04  0.972E-04
   0.221  0.834E-02  0.356E-03  0.573E-02  0.209E-02  0.696E-04  0.961E-04
   0.231  0.817E-02  0.356E-03  0.559E-02  0.206E-02  0.698E-04  0.950E-04
   0.241  0.800E-02  0.356E-03  0.546E-02  0.202E-02  0.700E-04  0.938E-04
   0.251  0.782E-02  0.357E-03  0.532E-02  0.199E-02  0.701E-04  0.926E-04
   0.261  0.764E-02  0.357E-03  0.517E-02  0.195E-02  0.703E-04  0.914E-04
   0.271  0.746E-02  0.357E-03  0.502E-02  0.192E-02  0.705E-04  0.901E-04
   0.281  0.727E-02  0.357E-03  0.487E-02  0.188E-02  0.708E-04  0.888E-04
   0.291  0.707E-02  0.357E-03  0.472E-02  0.184E-02  0.710E-04  0.874E-04
   0.301  0.688E-02  0.358E-03  0.456E-02  0.180E-02  0.712E-04  0.860E-04
   0.311  0.668E-02  0.358E-03  0.440E-02  0.176E-02  0.714E-04  0.846E-04
   0.321  0.647E-02  0.358E-03  0.424E-02  0.172E-02  0.717E-04  0.831E-04
   0.331  0.626E-02  0.358E-03  0.407E-02  0.168E-02  0.720E-04  0.816E-04
   0.341  0.605E-02  0.358E-03  0.390E-02  0.163E-02  0.722E-04  0.800E-04
   0.351  0.583E-02  0.358E-03  0.373E-02  0.159E-02  0.725E-04  0.784E-04
   0.361  0.560E-02  0.358E-03  0.355E-02  0.155E-02  0.728E-04  0.768E-04
   0.371  0.538E-02  0.358E-03  0.337E-02  0.150E-02  0.731E-04  0.751E-04
   0.381  0.779E-02  0.164E-02  0.336E-02  0.182E-02  0.686E-03  0.281E-03
   0.391  0.225E-01  0.628E-02  0.598E-02  0.621E-02  0.297E-02  0.108E-02
   0.401  0.423E-01  0.906E-02  0.119E-01  0.151E-01  0.446E-02  0.167E-02
   0.411  0.164E-01  0.285E-02  0.567E-02  0.598E-02  0.138E-02  0.551E-03
   0.421  0.171E-01  0.311E-02  0.561E-02  0.626E-02  0.156E-02  0.610E-03
   0.431  0.178E-01  0.335E-02  0.555E-02  0.655E-02  0.173E-02  0.669E-03
   0.441  0.193E-01  0.368E-02  0.584E-02  0.699E-02  0.194E-02  0.829E-03
   0.451  0.210E-01  0.402E-02  0.629E-02  0.752E-02  0.217E-02  0.997E-03
   0.461  0.361E-01  0.453E-02  0.111E-01  0.165E-01  0.276E-02  0.129E-02
   0.471  0.662E-01  0.574E-02  0.212E-01  0.336E-01  0.383E-02  0.181E-02
   0.481  0.106E+00  0.714E-02  0.360E-01  0.553E-01  0.526E-02  0.246E-02
   0.491  0.156E+00  0.862E-02  0.554E-01  0.819E-01  0.704E-02  0.320E-02
   0.501  0.216E+00  0.102E-01  0.794E-01  0.113E+00  0.918E-02  0.404E-02
   0.511  0.286E+00  0.118E-01  0.108E+00  0.149E+00  0.117E-01  0.498E-02
   0.521  0.160E+00  0.108E-01  0.609E-01  0.761E-01  0.830E-02  0.387E-02
   0.531  0.153E+00  0.116E-01  0.601E-01  0.697E-01  0.804E-02  0.379E-02
   0.541  0.144E+00  0.126E-01  0.586E-01  0.611E-01  0.774E-02  0.377E-02
   0.551  0.121E+00  0.123E-01  0.521E-01  0.463E-01  0.696E-02  0.357E-02
   0.561  0.933E-01  0.952E-02  0.406E-01  0.340E-01  0.600E-02  0.319E-02
   0.571  0.772E-01  0.638E-02  0.314E-01  0.311E-01  0.545E-02  0.289E-02
   0.581  0.866E-01  0.635E-02  0.360E-01  0.357E-01  0.562E-02  0.298E-02
   0.591  0.972E-01  0.638E-02  0.411E-01  0.409E-01  0.579E-02  0.308E-02
   0.601  0.110E+00  0.654E-02  0.472E-01  0.469E-01  0.599E-02  0.323E-02
   0.611  0.125E+00  0.671E-02  0.546E-01  0.536E-01  0.620E-02  0.340E-02
   0.621  0.130E+00  0.660E-02  0.581E-01  0.561E-01  0.609E-02  0.338E-02
   0.631  0.112E+00  0.587E-02  0.495E-01  0.488E-01  0.509E-02  0.284E-02
   0.641  0.129E+00  0.603E-02  0.538E-01  0.613E-01  0.496E-02  0.280E-02
   0.651  0.144E+00  0.659E-02  0.593E-01  0.697E-01  0.510E-02  0.294E-02
   0.661  0.143E+00  0.684E-02  0.590E-01  0.689E-01  0.489E-02  0.292E-02
   0.671  0.141E+00  0.710E-02  0.585E-01  0.680E-01  0.470E-02  0.289E-02
   0.681  0.140E+00  0.738E-02  0.578E-01  0.670E-01  0.452E-02  0.287E-02
   0.691  0.138E+00  0.766E-02  0.569E-01  0.660E-01  0.436E-02  0.284E-02
   0.701  0.136E+00  0.800E-02  0.559E-01  0.651E-01  0.421E-02  0.281E-02
   0.711  0.135E+00  0.845E-02  0.549E-01  0.648E-01  0.410E-02  0.280E-02
   0.721  0.134E+00  0.891E-02  0.538E-01  0.645E-01  0.400E-02  0.278E-02
   0.731  0.132E+00  0.938E-02  0.524E-01  0.640E-01  0.392E-02  0.276E-02
   0.741  0.131E+00  0.986E-02  0.508E-01  0.635E-01  0.386E-02  0.274E-02
   0.751  0.161E+00  0.130E-01  0.607E-01  0.789E-01  0.430E-02  0.370E-02
   0.761  0.169E+00  0.129E-01  0.662E-01  0.816E-01  0.440E-02  0.367E-02
   0.771  0.173E+00  0.129E-01  0.694E-01  0.823E-01  0.455E-02  0.361E-02
   0.781  0.173E+00  0.132E-01  0.704E-01  0.807E-01  0.472E-02  0.351E-02
   0.791  0.168E+00  0.134E-01  0.690E-01  0.769E-01  0.488E-02  0.336E-02
   0.801  0.153E+00  0.125E-01  0.637E-01  0.697E-01  0.469E-02  0.294E-02
   0.811  0.135E+00  0.117E-01  0.560E-01  0.607E-01  0.445E-02  0.249E-02
   0.821  0.137E+00  0.115E-01  0.566E-01  0.616E-01  0.443E-02  0.249E-02
   0.831  0.250E+00  0.122E-01  0.104E+00  0.124E+00  0.622E-02  0.339E-02
   0.841  0.202E+00  0.114E-01  0.817E-01  0.101E+00  0.562E-02  0.303E-02
   0.851  0.163E+00  0.107E-01  0.635E-01  0.808E-01  0.501E-02  0.270E-02
   0.861  0.131E+00  0.994E-02  0.496E-01  0.642E-01  0.439E-02  0.239E-02
   0.871  0.131E+00  0.140E-01  0.465E-01  0.634E-01  0.449E-02  0.287E-02
   0.881  0.152E+00  0.152E-01  0.563E-01  0.720E-01  0.527E-02  0.348E-02
   0.891  0.196E+00  0.163E-01  0.770E-01  0.917E-01  0.662E-02  0.449E-02
   0.901  0.148E+00  0.154E-01  0.486E-01  0.756E-01  0.515E-02  0.345E-02
   0.911  0.176E+00  0.178E-01  0.556E-01  0.925E-01  0.600E-02  0.390E-02
   0.921  0.209E+00  0.179E-01  0.648E-01  0.116E+00  0.643E-02  0.404E-02
   0.931  0.228E+00  0.169E-01  0.717E-01  0.129E+00  0.622E-02  0.397E-02
   0.941  0.219E+00  0.154E-01  0.712E-01  0.123E+00  0.548E-02  0.368E-02
   0.951  0.209E+00  0.139E-01  0.694E-01  0.117E+00  0.476E-02  0.338E-02
   0.961  0.196E+00  0.124E-01  0.665E-01  0.110E+00  0.406E-02  0.308E-02
   0.971  0.171E+00  0.988E-02  0.589E-01  0.966E-01  0.323E-02  0.263E-02
   0.981  0.179E+00  0.883E-02  0.621E-01  0.102E+00  0.301E-02  0.272E-02
   0.991  0.138E+00  0.740E-02  0.480E-01  0.772E-01  0.244E-02  0.263E-02
   1.001  0.159E+00  0.881E-02  0.550E-01  0.887E-01  0.297E-02  0.320E-02
   1.011  0.176E+00  0.106E-01  0.608E-01  0.974E-01  0.364E-02  0.378E-02
   1.021  0.190E+00  0.127E-01  0.654E-01  0.103E+00  0.445E-02  0.439E-02
   1.031  0.582E+00  0.481E-01  0.184E+00  0.322E+00  0.138E-01  0.141E-01
   1.041  0.558E-01  0.596E-02  0.198E-01  0.259E-01  0.233E-02  0.181E-02
   1.051  0.192E+00  0.154E-01  0.745E-01  0.768E-01  0.158E-01  0.941E-02
   1.061  0.174E+00  0.136E-01  0.654E-01  0.747E-01  0.131E-01  0.754E-02
   1.071  0.155E+00  0.119E-01  0.567E-01  0.697E-01  0.109E-01  0.608E-02
   1.081  0.135E+00  0.104E-01  0.484E-01  0.618E-01  0.898E-02  0.501E-02
   1.091  0.115E+00  0.917E-02  0.415E-01  0.529E-01  0.746E-02  0.432E-02
   1.101  0.103E+00  0.834E-02  0.373E-01  0.476E-01  0.579E-02  0.368E-02
   1.111  0.216E+00  0.167E-01  0.526E-01  0.778E-01  0.503E-01  0.187E-01
   1.121  0.123E+00  0.912E-02  0.423E-01  0.620E-01  0.566E-02  0.388E-02
   1.131  0.117E+00  0.869E-02  0.406E-01  0.585E-01  0.543E-02  0.397E-02
   1.141  0.124E+00  0.135E-01  0.410E-01  0.566E-01  0.617E-02  0.678E-02
   1.151  0.133E+00  0.184E-01  0.421E-01  0.559E-01  0.699E-02  0.935E-02
   1.161  0.141E+00  0.227E-01  0.435E-01  0.561E-01  0.776E-02  0.113E-01
   1.171  0.156E+00  0.272E-01  0.472E-01  0.594E-01  0.888E-02  0.130E-01
   1.181  0.173E+00  0.299E-01  0.522E-01  0.670E-01  0.983E-02  0.137E-01
   1.191  0.188E+00  0.286E-01  0.564E-01  0.798E-01  0.100E-01  0.133E-01
   1.201  0.212E+00  0.278E-01  0.636E-01  0.968E-01  0.104E-01  0.130E-01
   1.211  0.247E+00  0.334E-01  0.732E-01  0.117E+00  0.107E-01  0.129E-01
   1.221  0.290E+00  0.400E-01  0.851E-01  0.141E+00  0.109E-01  0.126E-01
   1.231  0.320E+00  0.476E-01  0.950E-01  0.154E+00  0.108E-01  0.122E-01
   1.241  0.333E+00  0.444E-01  0.104E+00  0.161E+00  0.110E-01  0.123E-01
   1.251  0.372E+00  0.489E-01  0.119E+00  0.180E+00  0.118E-01  0.128E-01
   1.261  0.442E+00  0.595E-01  0.147E+00  0.207E+00  0.140E-01  0.154E-01
   1.271  0.487E+00  0.781E-01  0.174E+00  0.198E+00  0.169E-01  0.202E-01
   1.281  0.500E+00  0.101E+00  0.196E+00  0.158E+00  0.198E-01  0.252E-01
   1.291  0.279E+00  0.543E-01  0.125E+00  0.798E-01  0.934E-02  0.109E-01
   1.301  0.406E+00  0.558E-01  0.220E+00  0.108E+00  0.115E-01  0.112E-01
   1.311  0.307E+00  0.430E-01  0.160E+00  0.849E-01  0.102E-01  0.910E-02
   1.321  0.222E+00  0.343E-01  0.105E+00  0.655E-01  0.922E-02  0.776E-02
   1.331  0.125E+00  0.199E-01  0.540E-01  0.403E-01  0.558E-02  0.487E-02
   1.341  0.111E+00  0.170E-01  0.488E-01  0.365E-01  0.482E-02  0.412E-02
   1.351  0.259E+00  0.160E-01  0.899E-01  0.132E+00  0.133E-01  0.731E-02
   1.361  0.327E+00  0.198E-01  0.121E+00  0.161E+00  0.134E-01  0.112E-01
   1.371  0.287E+00  0.176E-01  0.111E+00  0.139E+00  0.105E-01  0.943E-02
   1.381  0.244E+00  0.149E-01  0.953E-01  0.118E+00  0.815E-02  0.763E-02
   1.391  0.223E+00  0.133E-01  0.883E-01  0.108E+00  0.699E-02  0.672E-02
   1.401  0.212E+00  0.122E-01  0.860E-01  0.101E+00  0.617E-02  0.625E-02
   1.411  0.202E+00  0.113E-01  0.842E-01  0.953E-01  0.549E-02  0.595E-02
   1.421  0.197E+00  0.106E-01  0.841E-01  0.916E-01  0.501E-02  0.580E-02
   1.431  0.262E+00  0.131E-01  0.120E+00  0.117E+00  0.548E-02  0.697E-02
   1.441  0.205E+00  0.106E-01  0.925E-01  0.907E-01  0.469E-02  0.609E-02
   1.451  0.161E+00  0.862E-02  0.722E-01  0.703E-01  0.411E-02  0.546E-02
   1.461  0.130E+00  0.719E-02  0.588E-01  0.555E-01  0.372E-02  0.506E-02
   1.471  0.121E+00  0.688E-02  0.543E-01  0.517E-01  0.363E-02  0.498E-02
   1.481  0.124E+00  0.718E-02  0.551E-01  0.524E-01  0.370E-02  0.511E-02
   1.491  0.126E+00  0.750E-02  0.561E-01  0.534E-01  0.380E-02  0.526E-02
   1.501  0.219E+00  0.153E-01  0.781E-01  0.114E+00  0.540E-02  0.630E-02
   1.511  0.271E+00  0.209E-01  0.103E+00  0.132E+00  0.705E-02  0.802E-02
   1.521  0.388E+00  0.264E-01  0.156E+00  0.183E+00  0.106E-01  0.120E-01
   1.531  0.567E+00  0.319E-01  0.237E+00  0.264E+00  0.160E-01  0.181E-01
   1.541  0.183E+00  0.113E-01  0.714E-01  0.884E-01  0.591E-02  0.612E-02
   1.551  0.174E+00  0.108E-01  0.686E-01  0.823E-01  0.591E-02  0.605E-02
   1.561  0.444E+00  0.284E-01  0.217E+00  0.155E+00  0.162E-01  0.280E-01
   1.571  0.314E+00  0.193E-01  0.145E+00  0.121E+00  0.124E-01  0.171E-01
   1.581  0.234E+00  0.153E-01  0.105E+00  0.923E-01  0.899E-02  0.121E-01
   1.591  0.225E+00  0.151E-01  0.999E-01  0.893E-01  0.881E-02  0.116E-01
   1.601  0.222E+00  0.151E-01  0.969E-01  0.901E-01  0.906E-02  0.113E-01
   1.611  0.220E+00  0.152E-01  0.932E-01  0.910E-01  0.927E-02  0.109E-01
   1.621  0.193E+00  0.135E-01  0.823E-01  0.792E-01  0.832E-02  0.964E-02
   1.631  0.188E+00  0.133E-01  0.792E-01  0.777E-01  0.826E-02  0.908E-02
   1.641  0.181E+00  0.130E-01  0.758E-01  0.759E-01  0.813E-02  0.844E-02
   1.651  0.174E+00  0.128E-01  0.720E-01  0.737E-01  0.793E-02  0.772E-02
   1.661  0.169E+00  0.126E-01  0.691E-01  0.720E-01  0.779E-02  0.704E-02
   1.671  0.164E+00  0.129E-01  0.666E-01  0.706E-01  0.764E-02  0.650E-02
   1.681  0.161E+00  0.135E-01  0.642E-01  0.695E-01  0.740E-02  0.607E-02
   1.691  0.159E+00  0.146E-01  0.625E-01  0.688E-01  0.709E-02  0.577E-02
   1.701  0.157E+00  0.158E-01  0.610E-01  0.680E-01  0.664E-02  0.554E-02
   1.711  0.155E+00  0.168E-01  0.596E-01  0.669E-01  0.617E-02  0.529E-02
   1.721  0.153E+00  0.178E-01  0.584E-01  0.660E-01  0.571E-02  0.505E-02
   1.731  0.131E+00  0.172E-01  0.493E-01  0.554E-01  0.484E-02  0.448E-02
   1.741  0.133E+00  0.185E-01  0.492E-01  0.561E-01  0.465E-02  0.452E-02
   1.751  0.133E+00  0.195E-01  0.488E-01  0.561E-01  0.447E-02  0.455E-02
   1.761  0.132E+00  0.202E-01  0.480E-01  0.554E-01  0.429E-02  0.455E-02
   1.771  0.130E+00  0.206E-01  0.469E-01  0.541E-01  0.412E-02  0.454E-02
   1.781  0.341E+00  0.549E-01  0.118E+00  0.144E+00  0.105E-01  0.127E-01
   1.791  0.309E+00  0.418E-01  0.102E+00  0.145E+00  0.884E-02  0.108E-01
   1.801  0.267E+00  0.307E-01  0.856E-01  0.134E+00  0.729E-02  0.899E-02
   1.811  0.214E+00  0.218E-01  0.676E-01  0.111E+00  0.590E-02  0.721E-02
   1.821  0.150E+00  0.150E-01  0.487E-01  0.765E-01  0.465E-02  0.547E-02
   1.831  0.759E-01  0.104E-01  0.287E-01  0.295E-01  0.355E-02  0.376E-02
   1.841  0.578E-01  0.797E-02  0.230E-01  0.204E-01  0.320E-02  0.332E-02
   1.851  0.434E-01  0.556E-02  0.179E-01  0.142E-01  0.285E-02  0.290E-02
   1.861  0.302E-01  0.341E-02  0.131E-01  0.878E-02  0.246E-02  0.245E-02
   1.871  0.243E-01  0.258E-02  0.108E-01  0.672E-02  0.210E-02  0.208E-02
   1.881  0.184E-01  0.183E-02  0.838E-02  0.484E-02  0.169E-02  0.166E-02
   1.891  0.126E-01  0.116E-02  0.586E-02  0.313E-02  0.122E-02  0.120E-02
   1.901  0.679E-02  0.582E-03  0.324E-02  0.159E-02  0.695E-03  0.678E-03
   1.911  0.107E-02  0.843E-04  0.522E-03  0.236E-03  0.115E-03  0.112E-03
   1.921  0.000E+00  0.000E+00  0.000E+00  0.000E+00  0.000E+00  0.000E+00
