# E (eV)   ldos(E)   pdos(E)   
 -15.919  0.000E+00  0.000E+00
 -15.909  0.881E-01  0.881E-01
 -15.899  0.175E+00  0.175E+00
 -15.889  0.128E+00  0.128E+00
 -15.879  0.134E+00  0.134E+00
 -15.869  0.140E+00  0.140E+00
 -15.859  0.146E+00  0.146E+00
 -15.849  0.152E+00  0.152E+00
 -15.839  0.158E+00  0.158E+00
 -15.829  0.160E+00  0.160E+00
 -15.819  0.150E+00  0.150E+00
 -15.809  0.141E+00  0.141E+00
 -15.799  0.136E+00  0.136E+00
 -15.789  0.138E+00  0.138E+00
 -15.779  0.139E+00  0.139E+00
 -15.769  0.141E+00  0.141E+00
 -15.759  0.142E+00  0.142E+00
 -15.749  0.143E+00  0.143E+00
 -15.739  0.144E+00  0.144E+00
 -15.729  0.144E+00  0.144E+00
 -15.719  0.144E+00  0.144E+00
 -15.709  0.282E+00  0.282E+00
 -15.699  0.211E+00  0.211E+00
 -15.689  0.146E+00  0.146E+00
 -15.679  0.894E-01  0.894E-01
 -15.669  0.439E-01  0.439E-01
 -15.659  0.341E-01  0.341E-01
 -15.649  0.255E-01  0.255E-01
 -15.639  0.250E-01  0.250E-01
 -15.629  0.352E-01  0.352E-01
 -15.619  0.458E-01  0.458E-01
 -15.609  0.569E-01  0.569E-01
 -15.599  0.684E-01  0.684E-01
 -15.589  0.810E-01  0.810E-01
 -15.579  0.936E-01  0.936E-01
 -15.569  0.105E+00  0.105E+00
 -15.559  0.329E+00  0.329E+00
 -15.549  0.683E+00  0.683E+00
 -15.539  0.103E+00  0.103E+00
 -15.529  0.101E+00  0.101E+00
 -15.519  0.985E-01  0.985E-01
 -15.509  0.968E-01  0.968E-01
 -15.499  0.955E-01  0.955E-01
 -15.489  0.946E-01  0.946E-01
 -15.479  0.940E-01  0.940E-01
 -15.469  0.938E-01  0.938E-01
 -15.459  0.939E-01  0.939E-01
 -15.449  0.946E-01  0.946E-01
 -15.439  0.958E-01  0.958E-01
 -15.429  0.973E-01  0.973E-01
 -15.419  0.991E-01  0.991E-01
 -15.409  0.101E+00  0.101E+00
 -15.399  0.104E+00  0.104E+00
 -15.389  0.106E+00  0.106E+00
 -15.379  0.110E+00  0.110E+00
 -15.369  0.113E+00  0.113E+00
 -15.359  0.157E+00  0.157E+00
 -15.349  0.151E+00  0.151E+00
 -15.339  0.144E+00  0.144E+00
 -15.329  0.136E+00  0.136E+00
 -15.319  0.129E+00  0.129E+00
 -15.309  0.123E+00  0.123E+00
 -15.299  0.116E+00  0.116E+00
 -15.289  0.115E+00  0.115E+00
 -15.279  0.115E+00  0.115E+00
 -15.269  0.115E+00  0.115E+00
 -15.259  0.115E+00  0.115E+00
 -15.249  0.115E+00  0.115E+00
 -15.239  0.115E+00  0.115E+00
 -15.229  0.114E+00  0.114E+00
 -15.219  0.114E+00  0.114E+00
 -15.209  0.114E+00  0.114E+00
 -15.199  0.907E-01  0.907E-01
 -15.189  0.896E-01  0.896E-01
 -15.179  0.885E-01  0.885E-01
 -15.169  0.873E-01  0.873E-01
 -15.159  0.860E-01  0.860E-01
 -15.149  0.846E-01  0.846E-01
 -15.139  0.796E-01  0.796E-01
 -15.129  0.875E-01  0.875E-01
 -15.119  0.953E-01  0.953E-01
 -15.109  0.104E+00  0.104E+00
 -15.099  0.106E+00  0.106E+00
 -15.089  0.107E+00  0.107E+00
 -15.079  0.109E+00  0.109E+00
 -15.069  0.110E+00  0.110E+00
 -15.059  0.112E+00  0.112E+00
 -15.049  0.113E+00  0.113E+00
 -15.039  0.115E+00  0.115E+00
 -15.029  0.129E+00  0.129E+00
 -15.019  0.207E+00  0.207E+00
 -15.009  0.191E+00  0.191E+00
 -14.999  0.176E+00  0.176E+00
 -14.989  0.162E+00  0.162E+00
 -14.979  0.149E+00  0.149E+00
 -14.969  0.137E+00  0.137E+00
 -14.959  0.126E+00  0.126E+00
 -14.949  0.116E+00  0.116E+00
 -14.939  0.107E+00  0.107E+00
 -14.929  0.984E-01  0.984E-01
 -14.919  0.909E-01  0.909E-01
 -14.909  0.848E-01  0.848E-01
 -14.899  0.806E-01  0.806E-01
 -14.889  0.771E-01  0.771E-01
 -14.879  0.736E-01  0.736E-01
 -14.869  0.733E-01  0.733E-01
 -14.859  0.165E+00  0.165E+00
 -14.849  0.146E+00  0.146E+00
 -14.839  0.125E+00  0.125E+00
 -14.829  0.103E+00  0.103E+00
 -14.819  0.797E-01  0.797E-01
 -14.809  0.545E-01  0.545E-01
 -14.799  0.568E-01  0.568E-01
 -14.789  0.646E-01  0.646E-01
 -14.779  0.723E-01  0.723E-01
 -14.769  0.798E-01  0.798E-01
 -14.759  0.871E-01  0.871E-01
 -14.749  0.942E-01  0.942E-01
 -14.739  0.101E+00  0.101E+00
 -14.729  0.108E+00  0.108E+00
 -14.719  0.115E+00  0.115E+00
 -14.709  0.121E+00  0.121E+00
 -14.699  0.837E-01  0.837E-01
 -14.689  0.693E-01  0.693E-01
 -14.679  0.696E-01  0.696E-01
 -14.669  0.699E-01  0.699E-01
 -14.659  0.701E-01  0.701E-01
 -14.649  0.704E-01  0.704E-01
 -14.639  0.706E-01  0.706E-01
 -14.629  0.708E-01  0.708E-01
 -14.619  0.709E-01  0.709E-01
 -14.609  0.710E-01  0.710E-01
 -14.599  0.711E-01  0.711E-01
 -14.589  0.712E-01  0.712E-01
 -14.579  0.712E-01  0.712E-01
 -14.569  0.713E-01  0.713E-01
 -14.559  0.119E+00  0.119E+00
 -14.549  0.250E+00  0.250E+00
 -14.539  0.346E+00  0.346E+00
 -14.529  0.768E-01  0.768E-01
 -14.519  0.764E-01  0.764E-01
 -14.509  0.760E-01  0.760E-01
 -14.499  0.756E-01  0.756E-01
 -14.489  0.753E-01  0.753E-01
 -14.479  0.750E-01  0.750E-01
 -14.469  0.747E-01  0.747E-01
 -14.459  0.744E-01  0.744E-01
 -14.449  0.754E-01  0.754E-01
 -14.439  0.767E-01  0.767E-01
 -14.429  0.780E-01  0.780E-01
 -14.419  0.792E-01  0.792E-01
 -14.409  0.803E-01  0.803E-01
 -14.399  0.813E-01  0.813E-01
 -14.389  0.822E-01  0.822E-01
 -14.379  0.830E-01  0.830E-01
 -14.369  0.838E-01  0.838E-01
 -14.359  0.845E-01  0.845E-01
 -14.349  0.851E-01  0.851E-01
 -14.339  0.856E-01  0.856E-01
 -14.329  0.856E-01  0.856E-01
 -14.319  0.857E-01  0.857E-01
 -14.309  0.863E-01  0.863E-01
 -14.299  0.878E-01  0.878E-01
 -14.289  0.893E-01  0.893E-01
 -14.279  0.908E-01  0.908E-01
 -14.269  0.924E-01  0.924E-01
 -14.259  0.939E-01  0.939E-01
 -14.249  0.954E-01  0.954E-01
 -14.239  0.969E-01  0.969E-01
 -14.229  0.984E-01  0.984E-01
 -14.219  0.118E+00  0.118E+00
 -14.209  0.939E-01  0.939E-01
 -14.199  0.735E-01  0.735E-01
 -14.189  0.568E-01  0.568E-01
 -14.179  0.439E-01  0.439E-01
 -14.169  0.354E-01  0.354E-01
 -14.159  0.792E-01  0.792E-01
 -14.149  0.117E+00  0.117E+00
 -14.139  0.117E+00  0.117E+00
 -14.129  0.107E+00  0.107E+00
 -14.119  0.980E-01  0.980E-01
 -14.109  0.888E-01  0.888E-01
 -14.099  0.798E-01  0.798E-01
 -14.089  0.711E-01  0.711E-01
 -14.079  0.626E-01  0.626E-01
 -14.069  0.298E-01  0.298E-01
 -14.059  0.302E-01  0.302E-01
 -14.049  0.306E-01  0.306E-01
 -14.039  0.309E-01  0.309E-01
 -14.029  0.312E-01  0.312E-01
 -14.019  0.315E-01  0.315E-01
 -14.009  0.318E-01  0.318E-01
 -13.999  0.321E-01  0.321E-01
 -13.989  0.323E-01  0.323E-01
 -13.979  0.325E-01  0.325E-01
 -13.969  0.327E-01  0.327E-01
 -13.959  0.328E-01  0.328E-01
 -13.949  0.329E-01  0.329E-01
 -13.939  0.330E-01  0.330E-01
 -13.929  0.331E-01  0.331E-01
 -13.919  0.931E-01  0.931E-01
 -13.909  0.922E-01  0.922E-01
 -13.899  0.910E-01  0.910E-01
 -13.889  0.893E-01  0.893E-01
 -13.879  0.873E-01  0.873E-01
 -13.869  0.849E-01  0.849E-01
 -13.859  0.647E-01  0.647E-01
 -13.849  0.410E-01  0.410E-01
 -13.839  0.348E-01  0.348E-01
 -13.829  0.477E-01  0.477E-01
 -13.819  0.589E-01  0.589E-01
 -13.809  0.686E-01  0.686E-01
 -13.799  0.765E-01  0.765E-01
 -13.789  0.829E-01  0.829E-01
 -13.779  0.875E-01  0.875E-01
 -13.769  0.187E+00  0.187E+00
 -13.759  0.956E-01  0.956E-01
 -13.749  0.680E-01  0.680E-01
 -13.739  0.589E-01  0.589E-01
 -13.729  0.510E-01  0.510E-01
 -13.719  0.440E-01  0.440E-01
 -13.709  0.400E-01  0.400E-01
 -13.699  0.370E-01  0.370E-01
 -13.689  0.349E-01  0.349E-01
 -13.679  0.343E-01  0.343E-01
 -13.669  0.350E-01  0.350E-01
 -13.659  0.357E-01  0.357E-01
 -13.649  0.365E-01  0.365E-01
 -13.639  0.453E-01  0.453E-01
 -13.629  0.534E-01  0.534E-01
 -13.619  0.608E-01  0.608E-01
 -13.609  0.674E-01  0.674E-01
 -13.599  0.730E-01  0.730E-01
 -13.589  0.776E-01  0.776E-01
 -13.579  0.813E-01  0.813E-01
 -13.569  0.840E-01  0.840E-01
 -13.559  0.858E-01  0.858E-01
 -13.549  0.866E-01  0.866E-01
 -13.539  0.865E-01  0.865E-01
 -13.529  0.855E-01  0.855E-01
 -13.519  0.835E-01  0.835E-01
 -13.509  0.650E-01  0.650E-01
 -13.499  0.654E-01  0.654E-01
 -13.489  0.661E-01  0.661E-01
 -13.479  0.119E+00  0.119E+00
 -13.469  0.649E-01  0.649E-01
 -13.459  0.629E-01  0.629E-01
 -13.449  0.625E-01  0.625E-01
 -13.439  0.620E-01  0.620E-01
 -13.429  0.611E-01  0.611E-01
 -13.419  0.593E-01  0.593E-01
 -13.409  0.576E-01  0.576E-01
 -13.399  0.560E-01  0.560E-01
 -13.389  0.546E-01  0.546E-01
 -13.379  0.533E-01  0.533E-01
 -13.369  0.516E-01  0.516E-01
 -13.359  0.498E-01  0.498E-01
 -13.349  0.479E-01  0.479E-01
 -13.339  0.463E-01  0.463E-01
 -13.329  0.457E-01  0.457E-01
 -13.319  0.451E-01  0.451E-01
 -13.309  0.444E-01  0.444E-01
 -13.299  0.438E-01  0.438E-01
 -13.289  0.432E-01  0.432E-01
 -13.279  0.426E-01  0.426E-01
 -13.269  0.542E-01  0.542E-01
 -13.259  0.541E-01  0.541E-01
 -13.249  0.541E-01  0.541E-01
 -13.239  0.541E-01  0.541E-01
 -13.229  0.543E-01  0.543E-01
 -13.219  0.544E-01  0.544E-01
 -13.209  0.547E-01  0.547E-01
 -13.199  0.550E-01  0.550E-01
 -13.189  0.553E-01  0.553E-01
 -13.179  0.558E-01  0.558E-01
 -13.169  0.562E-01  0.562E-01
 -13.159  0.568E-01  0.568E-01
 -13.149  0.575E-01  0.575E-01
 -13.139  0.836E-01  0.836E-01
 -13.129  0.112E+00  0.112E+00
 -13.119  0.143E+00  0.143E+00
 -13.109  0.106E+00  0.106E+00
 -13.099  0.910E-01  0.910E-01
 -13.089  0.835E-01  0.835E-01
 -13.079  0.780E-01  0.780E-01
 -13.069  0.779E-01  0.779E-01
 -13.059  0.689E-01  0.689E-01
 -13.049  0.584E-01  0.584E-01
 -13.039  0.485E-01  0.485E-01
 -13.029  0.385E-01  0.385E-01
 -13.019  0.710E-02  0.710E-02
 -13.009  0.769E-02  0.769E-02
 -12.999  0.914E-02  0.914E-02
 -12.989  0.109E-01  0.109E-01
 -12.979  0.132E-01  0.132E-01
 -12.969  0.161E-01  0.161E-01
 -12.959  0.194E-01  0.194E-01
 -12.949  0.258E-01  0.258E-01
 -12.939  0.327E-01  0.327E-01
 -12.929  0.395E-01  0.395E-01
 -12.919  0.461E-01  0.461E-01
 -12.909  0.601E-01  0.601E-01
 -12.899  0.740E-01  0.740E-01
 -12.889  0.542E-01  0.542E-01
 -12.879  0.501E-01  0.501E-01
 -12.869  0.461E-01  0.461E-01
 -12.859  0.423E-01  0.423E-01
 -12.849  0.387E-01  0.387E-01
 -12.839  0.364E-01  0.364E-01
 -12.829  0.409E-01  0.409E-01
 -12.819  0.456E-01  0.456E-01
 -12.809  0.503E-01  0.503E-01
 -12.799  0.396E-01  0.396E-01
 -12.789  0.394E-01  0.394E-01
 -12.779  0.576E-01  0.576E-01
 -12.769  0.539E-01  0.539E-01
 -12.759  0.302E-01  0.302E-01
 -12.749  0.278E-01  0.278E-01
 -12.739  0.254E-01  0.254E-01
 -12.729  0.230E-01  0.230E-01
 -12.719  0.205E-01  0.205E-01
 -12.709  0.180E-01  0.180E-01
 -12.699  0.155E-01  0.155E-01
 -12.689  0.132E-01  0.132E-01
 -12.679  0.129E-01  0.129E-01
 -12.669  0.125E-01  0.125E-01
 -12.659  0.122E-01  0.122E-01
 -12.649  0.120E-01  0.120E-01
 -12.639  0.119E-01  0.119E-01
 -12.629  0.123E-01  0.123E-01
 -12.619  0.132E-01  0.132E-01
 -12.609  0.144E-01  0.144E-01
 -12.599  0.160E-01  0.160E-01
 -12.589  0.181E-01  0.181E-01
 -12.579  0.205E-01  0.205E-01
 -12.569  0.112E-01  0.112E-01
 -12.559  0.109E-01  0.109E-01
 -12.549  0.107E-01  0.107E-01
 -12.539  0.104E-01  0.104E-01
 -12.529  0.101E-01  0.101E-01
 -12.519  0.110E-01  0.110E-01
 -12.509  0.110E-01  0.110E-01
 -12.499  0.103E-01  0.103E-01
 -12.489  0.967E-02  0.967E-02
 -12.479  0.901E-02  0.901E-02
 -12.469  0.838E-02  0.838E-02
 -12.459  0.775E-02  0.775E-02
 -12.449  0.714E-02  0.714E-02
 -12.439  0.654E-02  0.654E-02
 -12.429  0.602E-02  0.602E-02
 -12.419  0.550E-02  0.550E-02
 -12.409  0.499E-02  0.499E-02
 -12.399  0.449E-02  0.449E-02
 -12.389  0.400E-02  0.400E-02
 -12.379  0.353E-02  0.353E-02
 -12.369  0.307E-02  0.307E-02
 -12.359  0.262E-02  0.262E-02
 -12.349  0.309E-02  0.309E-02
 -12.339  0.205E-02  0.205E-02
 -12.329  0.122E-02  0.122E-02
 -12.319  0.609E-03  0.609E-03
 -12.309  0.206E-03  0.206E-03
 -12.299  0.164E-04  0.164E-04
 -12.289  0.000E+00  0.000E+00
 -12.279  0.000E+00  0.000E+00
 -12.269  0.000E+00  0.000E+00
 -12.259  0.000E+00  0.000E+00
 -12.249  0.000E+00  0.000E+00
 -12.239  0.000E+00  0.000E+00
 -12.229  0.000E+00  0.000E+00
 -12.219  0.000E+00  0.000E+00
 -12.209  0.000E+00  0.000E+00
 -12.199  0.000E+00  0.000E+00
 -12.189  0.000E+00  0.000E+00
 -12.179  0.000E+00  0.000E+00
 -12.169  0.000E+00  0.000E+00
 -12.159  0.000E+00  0.000E+00
 -12.149  0.000E+00  0.000E+00
 -12.139  0.000E+00  0.000E+00
 -12.129  0.000E+00  0.000E+00
 -12.119  0.000E+00  0.000E+00
 -12.109  0.000E+00  0.000E+00
 -12.099  0.000E+00  0.000E+00
 -12.089  0.000E+00  0.000E+00
 -12.079  0.000E+00  0.000E+00
 -12.069  0.000E+00  0.000E+00
 -12.059  0.000E+00  0.000E+00
 -12.049  0.000E+00  0.000E+00
 -12.039  0.000E+00  0.000E+00
 -12.029  0.000E+00  0.000E+00
 -12.019  0.000E+00  0.000E+00
 -12.009  0.000E+00  0.000E+00
 -11.999  0.525E-04  0.525E-04
 -11.989  0.150E-03  0.150E-03
 -11.979  0.236E-03  0.236E-03
 -11.969  0.145E-03  0.145E-03
 -11.959  0.144E-03  0.144E-03
 -11.949  0.144E-03  0.144E-03
 -11.939  0.142E-03  0.142E-03
 -11.929  0.140E-03  0.140E-03
 -11.919  0.137E-03  0.137E-03
 -11.909  0.134E-03  0.134E-03
 -11.899  0.123E-03  0.123E-03
 -11.889  0.110E-03  0.110E-03
 -11.879  0.986E-04  0.986E-04
 -11.869  0.915E-04  0.915E-04
 -11.859  0.885E-04  0.885E-04
 -11.849  0.854E-04  0.854E-04
 -11.839  0.821E-04  0.821E-04
 -11.829  0.787E-04  0.787E-04
 -11.819  0.752E-04  0.752E-04
 -11.809  0.715E-04  0.715E-04
 -11.799  0.678E-04  0.678E-04
 -11.789  0.639E-04  0.639E-04
 -11.779  0.598E-04  0.598E-04
 -11.769  0.107E-03  0.107E-03
 -11.759  0.833E-04  0.833E-04
 -11.749  0.620E-04  0.620E-04
 -11.739  0.430E-04  0.430E-04
 -11.729  0.264E-04  0.264E-04
 -11.719  0.139E-04  0.139E-04
 -11.709  0.109E-04  0.109E-04
 -11.699  0.857E-05  0.857E-05
 -11.689  0.857E-05  0.857E-05
 -11.679  0.871E-05  0.871E-05
 -11.669  0.897E-05  0.897E-05
 -11.659  0.937E-05  0.937E-05
 -11.649  0.990E-05  0.990E-05
 -11.639  0.106E-04  0.106E-04
 -11.629  0.114E-04  0.114E-04
 -11.619  0.120E-04  0.120E-04
 -11.609  0.284E-04  0.284E-04
 -11.599  0.512E-04  0.512E-04
 -11.589  0.574E-04  0.574E-04
 -11.579  0.100E-04  0.100E-04
 -11.569  0.958E-05  0.958E-05
 -11.559  0.920E-05  0.920E-05
 -11.549  0.888E-05  0.888E-05
 -11.539  0.864E-05  0.864E-05
 -11.529  0.846E-05  0.846E-05
 -11.519  0.835E-05  0.835E-05
 -11.509  0.830E-05  0.830E-05
 -11.499  0.832E-05  0.832E-05
 -11.489  0.841E-05  0.841E-05
 -11.479  0.857E-05  0.857E-05
 -11.469  0.875E-05  0.875E-05
 -11.459  0.895E-05  0.895E-05
 -11.449  0.916E-05  0.916E-05
 -11.439  0.938E-05  0.938E-05
 -11.429  0.961E-05  0.961E-05
 -11.419  0.986E-05  0.986E-05
 -11.409  0.101E-04  0.101E-04
 -11.399  0.104E-04  0.104E-04
 -11.389  0.107E-04  0.107E-04
 -11.379  0.137E-04  0.137E-04
 -11.369  0.144E-04  0.144E-04
 -11.359  0.151E-04  0.151E-04
 -11.349  0.158E-04  0.158E-04
 -11.339  0.166E-04  0.166E-04
 -11.329  0.177E-04  0.177E-04
 -11.319  0.188E-04  0.188E-04
 -11.309  0.204E-04  0.204E-04
 -11.299  0.223E-04  0.223E-04
 -11.289  0.242E-04  0.242E-04
 -11.279  0.262E-04  0.262E-04
 -11.269  0.284E-04  0.284E-04
 -11.259  0.306E-04  0.306E-04
 -11.249  0.329E-04  0.329E-04
 -11.239  0.354E-04  0.354E-04
 -11.229  0.379E-04  0.379E-04
 -11.219  0.405E-04  0.405E-04
 -11.209  0.432E-04  0.432E-04
 -11.199  0.367E-04  0.367E-04
 -11.189  0.386E-04  0.386E-04
 -11.179  0.407E-04  0.407E-04
 -11.169  0.428E-04  0.428E-04
 -11.159  0.450E-04  0.450E-04
 -11.149  0.473E-04  0.473E-04
 -11.139  0.492E-04  0.492E-04
 -11.129  0.462E-04  0.462E-04
 -11.119  0.429E-04  0.429E-04
 -11.109  0.398E-04  0.398E-04
 -11.099  0.404E-04  0.404E-04
 -11.089  0.406E-04  0.406E-04
 -11.079  0.407E-04  0.407E-04
 -11.069  0.405E-04  0.405E-04
 -11.059  0.400E-04  0.400E-04
 -11.049  0.394E-04  0.394E-04
 -11.039  0.385E-04  0.385E-04
 -11.029  0.374E-04  0.374E-04
 -11.019  0.583E-04  0.583E-04
 -11.009  0.797E-04  0.797E-04
 -10.999  0.848E-04  0.848E-04
 -10.989  0.883E-04  0.883E-04
 -10.979  0.902E-04  0.902E-04
 -10.969  0.905E-04  0.905E-04
 -10.959  0.892E-04  0.892E-04
 -10.949  0.863E-04  0.863E-04
 -10.939  0.817E-04  0.817E-04
 -10.929  0.755E-04  0.755E-04
 -10.919  0.678E-04  0.678E-04
 -10.909  0.584E-04  0.584E-04
 -10.899  0.474E-04  0.474E-04
 -10.889  0.348E-04  0.348E-04
 -10.879  0.264E-04  0.264E-04
 -10.869  0.267E-04  0.267E-04
 -10.859  0.282E-04  0.282E-04
 -10.849  0.303E-04  0.303E-04
 -10.839  0.329E-04  0.329E-04
 -10.829  0.106E-03  0.106E-03
 -10.819  0.851E-04  0.851E-04
 -10.809  0.694E-04  0.694E-04
 -10.799  0.585E-04  0.585E-04
 -10.789  0.525E-04  0.525E-04
 -10.779  0.522E-04  0.522E-04
 -10.769  0.708E-04  0.708E-04
 -10.759  0.937E-04  0.937E-04
 -10.749  0.117E-03  0.117E-03
 -10.739  0.139E-03  0.139E-03
 -10.729  0.162E-03  0.162E-03
 -10.719  0.185E-03  0.185E-03
 -10.709  0.208E-03  0.208E-03
 -10.699  0.231E-03  0.231E-03
 -10.689  0.254E-03  0.254E-03
 -10.679  0.277E-03  0.277E-03
 -10.669  0.136E-03  0.136E-03
 -10.659  0.137E-03  0.137E-03
 -10.649  0.138E-03  0.138E-03
 -10.639  0.139E-03  0.139E-03
 -10.629  0.140E-03  0.140E-03
 -10.619  0.141E-03  0.141E-03
 -10.609  0.142E-03  0.142E-03
 -10.599  0.143E-03  0.143E-03
 -10.589  0.144E-03  0.144E-03
 -10.579  0.144E-03  0.144E-03
 -10.569  0.145E-03  0.145E-03
 -10.559  0.145E-03  0.145E-03
 -10.549  0.145E-03  0.145E-03
 -10.539  0.146E-03  0.146E-03
 -10.529  0.146E-03  0.146E-03
 -10.519  0.146E-03  0.146E-03
 -10.509  0.159E-03  0.159E-03
 -10.499  0.293E-03  0.293E-03
 -10.489  0.673E-03  0.673E-03
 -10.479  0.161E-03  0.161E-03
 -10.469  0.162E-03  0.162E-03
 -10.459  0.163E-03  0.163E-03
 -10.449  0.165E-03  0.165E-03
 -10.439  0.167E-03  0.167E-03
 -10.429  0.170E-03  0.170E-03
 -10.419  0.172E-03  0.172E-03
 -10.409  0.177E-03  0.177E-03
 -10.399  0.181E-03  0.181E-03
 -10.389  0.185E-03  0.185E-03
 -10.379  0.190E-03  0.190E-03
 -10.369  0.194E-03  0.194E-03
 -10.359  0.199E-03  0.199E-03
 -10.349  0.203E-03  0.203E-03
 -10.339  0.208E-03  0.208E-03
 -10.329  0.212E-03  0.212E-03
 -10.319  0.215E-03  0.215E-03
 -10.309  0.218E-03  0.218E-03
 -10.299  0.223E-03  0.223E-03
 -10.289  0.228E-03  0.228E-03
 -10.279  0.233E-03  0.233E-03
 -10.269  0.238E-03  0.238E-03
 -10.259  0.242E-03  0.242E-03
 -10.249  0.246E-03  0.246E-03
 -10.239  0.250E-03  0.250E-03
 -10.229  0.254E-03  0.254E-03
 -10.219  0.257E-03  0.257E-03
 -10.209  0.261E-03  0.261E-03
 -10.199  0.264E-03  0.264E-03
 -10.189  0.267E-03  0.267E-03
 -10.179  0.277E-03  0.277E-03
 -10.169  0.289E-03  0.289E-03
 -10.159  0.303E-03  0.303E-03
 -10.149  0.318E-03  0.318E-03
 -10.139  0.387E-03  0.387E-03
 -10.129  0.127E-03  0.127E-03
 -10.119  0.146E-03  0.146E-03
 -10.109  0.170E-03  0.170E-03
 -10.099  0.180E-03  0.180E-03
 -10.089  0.170E-03  0.170E-03
 -10.079  0.879E-04  0.879E-04
 -10.069  0.926E-04  0.926E-04
 -10.059  0.968E-04  0.968E-04
 -10.049  0.363E-03  0.363E-03
 -10.039  0.166E-02  0.166E-02
 -10.029  0.291E-02  0.291E-02
 -10.019  0.411E-02  0.411E-02
 -10.009  0.526E-02  0.526E-02
  -9.999  0.636E-02  0.636E-02
  -9.989  0.740E-02  0.740E-02
  -9.979  0.840E-02  0.840E-02
  -9.969  0.934E-02  0.934E-02
  -9.959  0.102E-01  0.102E-01
  -9.949  0.236E-01  0.236E-01
  -9.939  0.497E-01  0.497E-01
  -9.929  0.737E-01  0.737E-01
  -9.919  0.956E-01  0.956E-01
  -9.909  0.115E+00  0.115E+00
  -9.899  0.133E+00  0.133E+00
  -9.889  0.412E+00  0.412E+00
  -9.879  0.133E+00  0.133E+00
  -9.869  0.111E+00  0.111E+00
  -9.859  0.921E-01  0.921E-01
  -9.849  0.752E-01  0.752E-01
  -9.839  0.606E-01  0.606E-01
  -9.829  0.485E-01  0.485E-01
  -9.819  0.387E-01  0.387E-01
  -9.809  0.314E-01  0.314E-01
  -9.799  0.264E-01  0.264E-01
  -9.789  0.234E-01  0.234E-01
  -9.779  0.222E-01  0.222E-01
  -9.769  0.258E-01  0.258E-01
  -9.759  0.295E-01  0.295E-01
  -9.749  0.332E-01  0.332E-01
  -9.739  0.182E+00  0.182E+00
  -9.729  0.174E+00  0.174E+00
  -9.719  0.173E+00  0.173E+00
  -9.709  0.164E+00  0.164E+00
  -9.699  0.133E+00  0.133E+00
  -9.689  0.110E+00  0.110E+00
  -9.679  0.964E-01  0.964E-01
  -9.669  0.850E-01  0.850E-01
  -9.659  0.768E-01  0.768E-01
  -9.649  0.712E-01  0.712E-01
  -9.639  0.746E-01  0.746E-01
  -9.629  0.817E-01  0.817E-01
  -9.619  0.907E-01  0.907E-01
  -9.609  0.102E+00  0.102E+00
  -9.599  0.114E+00  0.114E+00
  -9.589  0.126E+00  0.126E+00
  -9.579  0.139E+00  0.139E+00
  -9.569  0.151E+00  0.151E+00
  -9.559  0.175E+00  0.175E+00
  -9.549  0.199E+00  0.199E+00
  -9.539  0.221E+00  0.221E+00
  -9.529  0.241E+00  0.241E+00
  -9.519  0.213E+00  0.213E+00
  -9.509  0.227E+00  0.227E+00
  -9.499  0.243E+00  0.243E+00
  -9.489  0.210E+00  0.210E+00
  -9.479  0.171E+00  0.171E+00
  -9.469  0.136E+00  0.136E+00
  -9.459  0.105E+00  0.105E+00
  -9.449  0.821E-01  0.821E-01
  -9.439  0.676E-01  0.676E-01
  -9.429  0.596E-01  0.596E-01
  -9.419  0.568E-01  0.568E-01
  -9.409  0.579E-01  0.579E-01
  -9.399  0.584E-01  0.584E-01
  -9.389  0.582E-01  0.582E-01
  -9.379  0.737E-01  0.737E-01
  -9.369  0.919E-01  0.919E-01
  -9.359  0.109E+00  0.109E+00
  -9.349  0.124E+00  0.124E+00
  -9.339  0.139E+00  0.139E+00
  -9.329  0.158E+00  0.158E+00
  -9.319  0.175E+00  0.175E+00
  -9.309  0.191E+00  0.191E+00
  -9.299  0.205E+00  0.205E+00
  -9.289  0.497E+00  0.497E+00
  -9.279  0.488E+00  0.488E+00
  -9.269  0.456E+00  0.456E+00
  -9.259  0.469E+00  0.469E+00
  -9.249  0.333E+00  0.333E+00
  -9.239  0.189E+00  0.189E+00
  -9.229  0.115E+00  0.115E+00
  -9.219  0.113E+00  0.113E+00
  -9.209  0.111E+00  0.111E+00
  -9.199  0.109E+00  0.109E+00
  -9.189  0.113E+00  0.113E+00
  -9.179  0.125E+00  0.125E+00
  -9.169  0.137E+00  0.137E+00
  -9.159  0.147E+00  0.147E+00
  -9.149  0.156E+00  0.156E+00
  -9.139  0.164E+00  0.164E+00
  -9.129  0.171E+00  0.171E+00
  -9.119  0.168E+00  0.168E+00
  -9.109  0.163E+00  0.163E+00
  -9.099  0.159E+00  0.159E+00
  -9.089  0.154E+00  0.154E+00
  -9.079  0.149E+00  0.149E+00
  -9.069  0.145E+00  0.145E+00
  -9.059  0.140E+00  0.140E+00
  -9.049  0.260E+00  0.260E+00
  -9.039  0.159E+00  0.159E+00
  -9.029  0.816E-01  0.816E-01
  -9.019  0.831E-01  0.831E-01
  -9.009  0.844E-01  0.844E-01
  -8.999  0.857E-01  0.857E-01
  -8.989  0.868E-01  0.868E-01
  -8.979  0.879E-01  0.879E-01
  -8.969  0.888E-01  0.888E-01
  -8.959  0.897E-01  0.897E-01
  -8.949  0.905E-01  0.905E-01
  -8.939  0.911E-01  0.911E-01
  -8.929  0.148E+00  0.148E+00
  -8.919  0.143E+00  0.143E+00
  -8.909  0.138E+00  0.138E+00
  -8.899  0.132E+00  0.132E+00
  -8.889  0.127E+00  0.127E+00
  -8.879  0.122E+00  0.122E+00
  -8.869  0.116E+00  0.116E+00
  -8.859  0.111E+00  0.111E+00
  -8.849  0.159E+00  0.159E+00
  -8.839  0.148E+00  0.148E+00
  -8.829  0.136E+00  0.136E+00
  -8.819  0.125E+00  0.125E+00
  -8.809  0.114E+00  0.114E+00
  -8.799  0.104E+00  0.104E+00
  -8.789  0.931E-01  0.931E-01
  -8.779  0.828E-01  0.828E-01
  -8.769  0.728E-01  0.728E-01
  -8.759  0.630E-01  0.630E-01
  -8.749  0.535E-01  0.535E-01
  -8.739  0.441E-01  0.441E-01
  -8.729  0.366E-01  0.366E-01
  -8.719  0.298E-01  0.298E-01
  -8.709  0.235E-01  0.235E-01
  -8.699  0.482E-01  0.482E-01
  -8.689  0.724E-01  0.724E-01
  -8.679  0.812E-01  0.812E-01
  -8.669  0.739E-01  0.739E-01
  -8.659  0.519E-01  0.519E-01
  -8.649  0.169E-01  0.169E-01
  -8.639  0.157E-01  0.157E-01
  -8.629  0.182E-01  0.182E-01
  -8.619  0.211E-01  0.211E-01
  -8.609  0.232E-01  0.232E-01
  -8.599  0.246E-01  0.246E-01
  -8.589  0.268E-01  0.268E-01
  -8.579  0.296E-01  0.296E-01
  -8.569  0.325E-01  0.325E-01
  -8.559  0.353E-01  0.353E-01
  -8.549  0.382E-01  0.382E-01
  -8.539  0.410E-01  0.410E-01
  -8.529  0.439E-01  0.439E-01
  -8.519  0.468E-01  0.468E-01
  -8.509  0.496E-01  0.496E-01
  -8.499  0.525E-01  0.525E-01
  -8.489  0.554E-01  0.554E-01
  -8.479  0.589E-01  0.589E-01
  -8.469  0.631E-01  0.631E-01
  -8.459  0.673E-01  0.673E-01
  -8.449  0.716E-01  0.716E-01
  -8.439  0.760E-01  0.760E-01
  -8.429  0.804E-01  0.804E-01
  -8.419  0.849E-01  0.849E-01
  -8.409  0.894E-01  0.894E-01
  -8.399  0.940E-01  0.940E-01
  -8.389  0.987E-01  0.987E-01
  -8.379  0.684E-01  0.684E-01
  -8.369  0.669E-01  0.669E-01
  -8.359  0.113E+00  0.113E+00
  -8.349  0.857E-01  0.857E-01
  -8.339  0.713E-01  0.713E-01
  -8.329  0.591E-01  0.591E-01
  -8.319  0.492E-01  0.492E-01
  -8.309  0.416E-01  0.416E-01
  -8.299  0.361E-01  0.361E-01
  -8.289  0.368E-01  0.368E-01
  -8.279  0.990E-01  0.990E-01
  -8.269  0.313E-01  0.313E-01
  -8.259  0.297E-01  0.297E-01
  -8.249  0.284E-01  0.284E-01
  -8.239  0.275E-01  0.275E-01
  -8.229  0.271E-01  0.271E-01
  -8.219  0.269E-01  0.269E-01
  -8.209  0.273E-01  0.273E-01
  -8.199  0.278E-01  0.278E-01
  -8.189  0.283E-01  0.283E-01
  -8.179  0.289E-01  0.289E-01
  -8.169  0.275E-01  0.275E-01
  -8.159  0.283E-01  0.283E-01
  -8.149  0.294E-01  0.294E-01
  -8.139  0.307E-01  0.307E-01
  -8.129  0.322E-01  0.322E-01
  -8.119  0.341E-01  0.341E-01
  -8.109  0.361E-01  0.361E-01
  -8.099  0.385E-01  0.385E-01
  -8.089  0.411E-01  0.411E-01
  -8.079  0.442E-01  0.442E-01
  -8.069  0.481E-01  0.481E-01
  -8.059  0.527E-01  0.527E-01
  -8.049  0.579E-01  0.579E-01
  -8.039  0.639E-01  0.639E-01
  -8.029  0.706E-01  0.706E-01
  -8.019  0.782E-01  0.782E-01
  -8.009  0.837E-01  0.837E-01
  -7.999  0.730E-01  0.730E-01
  -7.989  0.640E-01  0.640E-01
  -7.979  0.156E+00  0.156E+00
  -7.969  0.109E+00  0.109E+00
  -7.959  0.745E-01  0.745E-01
  -7.949  0.515E-01  0.515E-01
  -7.939  0.395E-01  0.395E-01
  -7.929  0.341E-01  0.341E-01
  -7.919  0.289E-01  0.289E-01
  -7.909  0.239E-01  0.239E-01
  -7.899  0.191E-01  0.191E-01
  -7.889  0.144E-01  0.144E-01
  -7.879  0.104E-01  0.104E-01
  -7.869  0.890E-02  0.890E-02
  -7.859  0.777E-02  0.777E-02
  -7.849  0.757E-02  0.757E-02
  -7.839  0.756E-02  0.756E-02
  -7.829  0.776E-02  0.776E-02
  -7.819  0.816E-02  0.816E-02
  -7.809  0.876E-02  0.876E-02
  -7.799  0.943E-02  0.943E-02
  -7.789  0.101E-01  0.101E-01
  -7.779  0.107E-01  0.107E-01
  -7.769  0.114E-01  0.114E-01
  -7.759  0.120E-01  0.120E-01
  -7.749  0.126E-01  0.126E-01
  -7.739  0.132E-01  0.132E-01
  -7.729  0.137E-01  0.137E-01
  -7.719  0.143E-01  0.143E-01
  -7.709  0.148E-01  0.148E-01
  -7.699  0.154E-01  0.154E-01
  -7.689  0.159E-01  0.159E-01
  -7.679  0.164E-01  0.164E-01
  -7.669  0.168E-01  0.168E-01
  -7.659  0.173E-01  0.173E-01
  -7.649  0.250E-01  0.250E-01
  -7.639  0.459E-01  0.459E-01
  -7.629  0.792E-01  0.792E-01
  -7.619  0.139E+00  0.139E+00
  -7.609  0.131E+00  0.131E+00
  -7.599  0.459E-01  0.459E-01
  -7.589  0.230E-01  0.230E-01
  -7.579  0.237E-01  0.237E-01
  -7.569  0.244E-01  0.244E-01
  -7.559  0.251E-01  0.251E-01
  -7.549  0.258E-01  0.258E-01
  -7.539  0.265E-01  0.265E-01
  -7.529  0.272E-01  0.272E-01
  -7.519  0.279E-01  0.279E-01
  -7.509  0.286E-01  0.286E-01
  -7.499  0.293E-01  0.293E-01
  -7.489  0.299E-01  0.299E-01
  -7.479  0.306E-01  0.306E-01
  -7.469  0.313E-01  0.313E-01
  -7.459  0.319E-01  0.319E-01
  -7.449  0.326E-01  0.326E-01
  -7.439  0.332E-01  0.332E-01
  -7.429  0.339E-01  0.339E-01
  -7.419  0.957E-01  0.957E-01
  -7.409  0.817E-01  0.817E-01
  -7.399  0.679E-01  0.679E-01
  -7.389  0.569E-01  0.569E-01
  -7.379  0.488E-01  0.488E-01
  -7.369  0.428E-01  0.428E-01
  -7.359  0.388E-01  0.388E-01
  -7.349  0.369E-01  0.369E-01
  -7.339  0.361E-01  0.361E-01
  -7.329  0.347E-01  0.347E-01
  -7.319  0.329E-01  0.329E-01
  -7.309  0.306E-01  0.306E-01
  -7.299  0.278E-01  0.278E-01
  -7.289  0.250E-01  0.250E-01
  -7.279  0.231E-01  0.231E-01
  -7.269  0.246E-01  0.246E-01
  -7.259  0.244E-01  0.244E-01
  -7.249  0.242E-01  0.242E-01
  -7.239  0.244E-01  0.244E-01
  -7.229  0.247E-01  0.247E-01
  -7.219  0.247E-01  0.247E-01
  -7.209  0.244E-01  0.244E-01
  -7.199  0.241E-01  0.241E-01
  -7.189  0.239E-01  0.239E-01
  -7.179  0.238E-01  0.238E-01
  -7.169  0.237E-01  0.237E-01
  -7.159  0.236E-01  0.236E-01
  -7.149  0.235E-01  0.235E-01
  -7.139  0.235E-01  0.235E-01
  -7.129  0.236E-01  0.236E-01
  -7.119  0.236E-01  0.236E-01
  -7.109  0.238E-01  0.238E-01
  -7.099  0.239E-01  0.239E-01
  -7.089  0.241E-01  0.241E-01
  -7.079  0.243E-01  0.243E-01
  -7.069  0.246E-01  0.246E-01
  -7.059  0.249E-01  0.249E-01
  -7.049  0.253E-01  0.253E-01
  -7.039  0.257E-01  0.257E-01
  -7.029  0.261E-01  0.261E-01
  -7.019  0.282E-01  0.282E-01
  -7.009  0.376E-01  0.376E-01
  -6.999  0.300E-01  0.300E-01
  -6.989  0.445E-01  0.445E-01
  -6.979  0.959E-01  0.959E-01
  -6.969  0.455E-01  0.455E-01
  -6.959  0.445E-01  0.445E-01
  -6.949  0.437E-01  0.437E-01
  -6.939  0.431E-01  0.431E-01
  -6.929  0.429E-01  0.429E-01
  -6.919  0.430E-01  0.430E-01
  -6.909  0.434E-01  0.434E-01
  -6.899  0.440E-01  0.440E-01
  -6.889  0.441E-01  0.441E-01
  -6.879  0.386E-01  0.386E-01
  -6.869  0.331E-01  0.331E-01
  -6.859  0.275E-01  0.275E-01
  -6.849  0.182E+00  0.182E+00
  -6.839  0.468E-01  0.468E-01
  -6.829  0.631E-01  0.631E-01
  -6.819  0.644E-01  0.644E-01
  -6.809  0.230E-01  0.230E-01
  -6.799  0.208E-01  0.208E-01
  -6.789  0.187E-01  0.187E-01
  -6.779  0.166E-01  0.166E-01
  -6.769  0.146E-01  0.146E-01
  -6.759  0.127E-01  0.127E-01
  -6.749  0.108E-01  0.108E-01
  -6.739  0.898E-02  0.898E-02
  -6.729  0.721E-02  0.721E-02
  -6.719  0.568E-02  0.568E-02
  -6.709  0.482E-02  0.482E-02
  -6.699  0.531E-02  0.531E-02
  -6.689  0.606E-02  0.606E-02
  -6.679  0.661E-02  0.661E-02
  -6.669  0.729E-02  0.729E-02
  -6.659  0.831E-02  0.831E-02
  -6.649  0.910E-02  0.910E-02
  -6.639  0.957E-02  0.957E-02
  -6.629  0.973E-02  0.973E-02
  -6.619  0.958E-02  0.958E-02
  -6.609  0.837E-02  0.837E-02
  -6.599  0.116E-01  0.116E-01
  -6.589  0.139E-01  0.139E-01
  -6.579  0.155E-01  0.155E-01
  -6.569  0.162E-01  0.162E-01
  -6.559  0.161E-01  0.161E-01
  -6.549  0.152E-01  0.152E-01
  -6.539  0.299E-01  0.299E-01
  -6.529  0.435E-01  0.435E-01
  -6.519  0.368E-01  0.368E-01
  -6.509  0.194E-01  0.194E-01
  -6.499  0.198E-01  0.198E-01
  -6.489  0.202E-01  0.202E-01
  -6.479  0.209E-01  0.209E-01
  -6.469  0.220E-01  0.220E-01
  -6.459  0.231E-01  0.231E-01
  -6.449  0.242E-01  0.242E-01
  -6.439  0.252E-01  0.252E-01
  -6.429  0.262E-01  0.262E-01
  -6.419  0.272E-01  0.272E-01
  -6.409  0.281E-01  0.281E-01
  -6.399  0.289E-01  0.289E-01
  -6.389  0.298E-01  0.298E-01
  -6.379  0.306E-01  0.306E-01
  -6.369  0.319E-01  0.319E-01
  -6.359  0.338E-01  0.338E-01
  -6.349  0.363E-01  0.363E-01
  -6.339  0.394E-01  0.394E-01
  -6.329  0.430E-01  0.430E-01
  -6.319  0.216E+00  0.216E+00
  -6.309  0.848E-01  0.848E-01
  -6.299  0.290E-01  0.290E-01
  -6.289  0.214E-01  0.214E-01
  -6.279  0.248E-01  0.248E-01
  -6.269  0.321E-01  0.321E-01
  -6.259  0.436E-01  0.436E-01
  -6.249  0.589E-01  0.589E-01
  -6.239  0.232E-01  0.232E-01
  -6.229  0.232E-01  0.232E-01
  -6.219  0.232E-01  0.232E-01
  -6.209  0.232E-01  0.232E-01
  -6.199  0.231E-01  0.231E-01
  -6.189  0.235E-01  0.235E-01
  -6.179  0.232E-01  0.232E-01
  -6.169  0.229E-01  0.229E-01
  -6.159  0.236E-01  0.236E-01
  -6.149  0.233E-01  0.233E-01
  -6.139  0.236E-01  0.236E-01
  -6.129  0.241E-01  0.241E-01
  -6.119  0.253E-01  0.253E-01
  -6.109  0.251E-01  0.251E-01
  -6.099  0.231E-01  0.231E-01
  -6.089  0.227E-01  0.227E-01
  -6.079  0.220E-01  0.220E-01
  -6.069  0.213E-01  0.213E-01
  -6.059  0.207E-01  0.207E-01
  -6.049  0.201E-01  0.201E-01
  -6.039  0.197E-01  0.197E-01
  -6.029  0.191E-01  0.191E-01
  -6.019  0.186E-01  0.186E-01
  -6.009  0.181E-01  0.181E-01
  -5.999  0.176E-01  0.176E-01
  -5.989  0.171E-01  0.171E-01
  -5.979  0.167E-01  0.167E-01
  -5.969  0.167E-01  0.167E-01
  -5.959  0.168E-01  0.168E-01
  -5.949  0.171E-01  0.171E-01
  -5.939  0.175E-01  0.175E-01
  -5.929  0.179E-01  0.179E-01
  -5.919  0.184E-01  0.184E-01
  -5.909  0.190E-01  0.190E-01
  -5.899  0.196E-01  0.196E-01
  -5.889  0.201E-01  0.201E-01
  -5.879  0.207E-01  0.207E-01
  -5.869  0.212E-01  0.212E-01
  -5.859  0.219E-01  0.219E-01
  -5.849  0.228E-01  0.228E-01
  -5.839  0.236E-01  0.236E-01
  -5.829  0.245E-01  0.245E-01
  -5.819  0.259E-01  0.259E-01
  -5.809  0.282E-01  0.282E-01
  -5.799  0.304E-01  0.304E-01
  -5.789  0.327E-01  0.327E-01
  -5.779  0.350E-01  0.350E-01
  -5.769  0.373E-01  0.373E-01
  -5.759  0.396E-01  0.396E-01
  -5.749  0.419E-01  0.419E-01
  -5.739  0.443E-01  0.443E-01
  -5.729  0.445E-01  0.445E-01
  -5.719  0.403E-01  0.403E-01
  -5.709  0.332E-01  0.332E-01
  -5.699  0.240E-01  0.240E-01
  -5.689  0.253E-01  0.253E-01
  -5.679  0.262E-01  0.262E-01
  -5.669  0.265E-01  0.265E-01
  -5.659  0.264E-01  0.264E-01
  -5.649  0.256E-01  0.256E-01
  -5.639  0.248E-01  0.248E-01
  -5.629  0.240E-01  0.240E-01
  -5.619  0.231E-01  0.231E-01
  -5.609  0.221E-01  0.221E-01
  -5.599  0.211E-01  0.211E-01
  -5.589  0.200E-01  0.200E-01
  -5.579  0.189E-01  0.189E-01
  -5.569  0.151E-01  0.151E-01
  -5.559  0.149E-01  0.149E-01
  -5.549  0.147E-01  0.147E-01
  -5.539  0.146E-01  0.146E-01
  -5.529  0.144E-01  0.144E-01
  -5.519  0.143E-01  0.143E-01
  -5.509  0.141E-01  0.141E-01
  -5.499  0.139E-01  0.139E-01
  -5.489  0.138E-01  0.138E-01
  -5.479  0.136E-01  0.136E-01
  -5.469  0.134E-01  0.134E-01
  -5.459  0.133E-01  0.133E-01
  -5.449  0.131E-01  0.131E-01
  -5.439  0.129E-01  0.129E-01
  -5.429  0.127E-01  0.127E-01
  -5.419  0.126E-01  0.126E-01
  -5.409  0.124E-01  0.124E-01
  -5.399  0.264E-01  0.264E-01
  -5.389  0.129E-01  0.129E-01
  -5.379  0.103E-01  0.103E-01
  -5.369  0.112E-01  0.112E-01
  -5.359  0.131E-01  0.131E-01
  -5.349  0.147E-01  0.147E-01
  -5.339  0.159E-01  0.159E-01
  -5.329  0.167E-01  0.167E-01
  -5.319  0.171E-01  0.171E-01
  -5.309  0.171E-01  0.171E-01
  -5.299  0.167E-01  0.167E-01
  -5.289  0.160E-01  0.160E-01
  -5.279  0.148E-01  0.148E-01
  -5.269  0.135E-01  0.135E-01
  -5.259  0.143E-01  0.143E-01
  -5.249  0.164E-01  0.164E-01
  -5.239  0.180E-01  0.180E-01
  -5.229  0.184E-01  0.184E-01
  -5.219  0.222E-01  0.222E-01
  -5.209  0.230E-01  0.230E-01
  -5.199  0.204E-01  0.204E-01
  -5.189  0.203E-01  0.203E-01
  -5.179  0.378E-01  0.378E-01
  -5.169  0.586E-01  0.586E-01
  -5.159  0.784E-01  0.784E-01
  -5.149  0.295E-01  0.295E-01
  -5.139  0.258E-01  0.258E-01
  -5.129  0.223E-01  0.223E-01
  -5.119  0.191E-01  0.191E-01
  -5.109  0.161E-01  0.161E-01
  -5.099  0.134E-01  0.134E-01
  -5.089  0.109E-01  0.109E-01
  -5.079  0.868E-02  0.868E-02
  -5.069  0.679E-02  0.679E-02
  -5.059  0.518E-02  0.518E-02
  -5.049  0.402E-02  0.402E-02
  -5.039  0.431E-02  0.431E-02
  -5.029  0.474E-02  0.474E-02
  -5.019  0.522E-02  0.522E-02
  -5.009  0.623E-02  0.623E-02
  -4.999  0.748E-02  0.748E-02
  -4.989  0.875E-02  0.875E-02
  -4.979  0.131E-01  0.131E-01
  -4.969  0.180E-01  0.180E-01
  -4.959  0.213E-01  0.213E-01
  -4.949  0.224E-01  0.224E-01
  -4.939  0.247E-01  0.247E-01
  -4.929  0.249E-01  0.249E-01
  -4.919  0.214E-01  0.214E-01
  -4.909  0.144E-01  0.144E-01
  -4.899  0.645E-02  0.645E-02
  -4.889  0.166E-01  0.166E-01
  -4.879  0.524E-02  0.524E-02
  -4.869  0.182E-02  0.182E-02
  -4.859  0.156E-02  0.156E-02
  -4.849  0.215E-02  0.215E-02
  -4.839  0.295E-02  0.295E-02
  -4.829  0.383E-02  0.383E-02
  -4.819  0.478E-02  0.478E-02
  -4.809  0.581E-02  0.581E-02
  -4.799  0.373E-02  0.373E-02
  -4.789  0.430E-02  0.430E-02
  -4.779  0.494E-02  0.494E-02
  -4.769  0.567E-02  0.567E-02
  -4.759  0.642E-02  0.642E-02
  -4.749  0.720E-02  0.720E-02
  -4.739  0.798E-02  0.798E-02
  -4.729  0.876E-02  0.876E-02
  -4.719  0.955E-02  0.955E-02
  -4.709  0.104E-01  0.104E-01
  -4.699  0.114E-01  0.114E-01
  -4.689  0.231E-01  0.231E-01
  -4.679  0.327E-01  0.327E-01
  -4.669  0.276E-01  0.276E-01
  -4.659  0.193E-01  0.193E-01
  -4.649  0.129E-01  0.129E-01
  -4.639  0.850E-02  0.850E-02
  -4.629  0.603E-02  0.603E-02
  -4.619  0.607E-02  0.607E-02
  -4.609  0.154E-01  0.154E-01
  -4.599  0.691E-02  0.691E-02
  -4.589  0.632E-02  0.632E-02
  -4.579  0.636E-02  0.636E-02
  -4.569  0.643E-02  0.643E-02
  -4.559  0.685E-02  0.685E-02
  -4.549  0.764E-02  0.764E-02
  -4.539  0.870E-02  0.870E-02
  -4.529  0.968E-02  0.968E-02
  -4.519  0.101E-01  0.101E-01
  -4.509  0.910E-02  0.910E-02
  -4.499  0.998E-02  0.998E-02
  -4.489  0.110E-01  0.110E-01
  -4.479  0.153E-01  0.153E-01
  -4.469  0.140E-01  0.140E-01
  -4.459  0.852E-02  0.852E-02
  -4.449  0.848E-02  0.848E-02
  -4.439  0.876E-02  0.876E-02
  -4.429  0.857E-02  0.857E-02
  -4.419  0.834E-02  0.834E-02
  -4.409  0.806E-02  0.806E-02
  -4.399  0.772E-02  0.772E-02
  -4.389  0.737E-02  0.737E-02
  -4.379  0.696E-02  0.696E-02
  -4.369  0.648E-02  0.648E-02
  -4.359  0.606E-02  0.606E-02
  -4.349  0.584E-02  0.584E-02
  -4.339  0.583E-02  0.583E-02
  -4.329  0.566E-02  0.566E-02
  -4.319  0.398E-02  0.398E-02
  -4.309  0.270E-02  0.270E-02
  -4.299  0.204E-02  0.204E-02
  -4.289  0.480E-02  0.480E-02
  -4.279  0.758E-02  0.758E-02
  -4.269  0.104E-01  0.104E-01
  -4.259  0.129E-01  0.129E-01
  -4.249  0.121E-02  0.121E-02
  -4.239  0.146E-02  0.146E-02
  -4.229  0.188E-02  0.188E-02
  -4.219  0.263E-02  0.263E-02
  -4.209  0.390E-02  0.390E-02
  -4.199  0.508E-02  0.508E-02
  -4.189  0.599E-02  0.599E-02
  -4.179  0.677E-02  0.677E-02
  -4.169  0.742E-02  0.742E-02
  -4.159  0.793E-02  0.793E-02
  -4.149  0.831E-02  0.831E-02
  -4.139  0.854E-02  0.854E-02
  -4.129  0.863E-02  0.863E-02
  -4.119  0.127E-01  0.127E-01
  -4.109  0.782E-02  0.782E-02
  -4.099  0.744E-02  0.744E-02
  -4.089  0.725E-02  0.725E-02
  -4.079  0.698E-02  0.698E-02
  -4.069  0.448E-02  0.448E-02
  -4.059  0.416E-02  0.416E-02
  -4.049  0.387E-02  0.387E-02
  -4.039  0.359E-02  0.359E-02
  -4.029  0.332E-02  0.332E-02
  -4.019  0.308E-02  0.308E-02
  -4.009  0.285E-02  0.285E-02
  -3.999  0.263E-02  0.263E-02
  -3.989  0.255E-02  0.255E-02
  -3.979  0.230E-02  0.230E-02
  -3.969  0.207E-02  0.207E-02
  -3.959  0.201E-02  0.201E-02
  -3.949  0.189E-02  0.189E-02
  -3.939  0.438E-02  0.438E-02
  -3.929  0.400E-02  0.400E-02
  -3.919  0.388E-02  0.388E-02
  -3.909  0.364E-02  0.364E-02
  -3.899  0.328E-02  0.328E-02
  -3.889  0.288E-02  0.288E-02
  -3.879  0.247E-02  0.247E-02
  -3.869  0.207E-02  0.207E-02
  -3.859  0.168E-02  0.168E-02
  -3.849  0.130E-02  0.130E-02
  -3.839  0.938E-03  0.938E-03
  -3.829  0.638E-03  0.638E-03
  -3.819  0.412E-03  0.412E-03
  -3.809  0.224E-03  0.224E-03
  -3.799  0.471E-03  0.471E-03
  -3.789  0.998E-03  0.998E-03
  -3.779  0.180E-02  0.180E-02
  -3.769  0.288E-02  0.288E-02
  -3.759  0.424E-02  0.424E-02
  -3.749  0.587E-02  0.587E-02
  -3.739  0.363E-02  0.363E-02
  -3.729  0.385E-02  0.385E-02
  -3.719  0.405E-02  0.405E-02
  -3.709  0.419E-02  0.419E-02
  -3.699  0.561E-02  0.561E-02
  -3.689  0.769E-02  0.769E-02
  -3.679  0.414E-02  0.414E-02
  -3.669  0.400E-02  0.400E-02
  -3.659  0.379E-02  0.379E-02
  -3.649  0.352E-02  0.352E-02
  -3.639  0.318E-02  0.318E-02
  -3.629  0.258E-02  0.258E-02
  -3.619  0.214E-02  0.214E-02
  -3.609  0.203E-02  0.203E-02
  -3.599  0.191E-02  0.191E-02
  -3.589  0.180E-02  0.180E-02
  -3.579  0.169E-02  0.169E-02
  -3.569  0.159E-02  0.159E-02
  -3.559  0.149E-02  0.149E-02
  -3.549  0.138E-02  0.138E-02
  -3.539  0.129E-02  0.129E-02
  -3.529  0.120E-02  0.120E-02
  -3.519  0.112E-02  0.112E-02
  -3.509  0.106E-02  0.106E-02
  -3.499  0.100E-02  0.100E-02
  -3.489  0.714E-03  0.714E-03
  -3.479  0.610E-03  0.610E-03
  -3.469  0.496E-03  0.496E-03
  -3.459  0.527E-03  0.527E-03
  -3.449  0.560E-03  0.560E-03
  -3.439  0.594E-03  0.594E-03
  -3.429  0.631E-03  0.631E-03
  -3.419  0.670E-03  0.670E-03
  -3.409  0.710E-03  0.710E-03
  -3.399  0.753E-03  0.753E-03
  -3.389  0.798E-03  0.798E-03
  -3.379  0.844E-03  0.844E-03
  -3.369  0.893E-03  0.893E-03
  -3.359  0.883E-03  0.883E-03
  -3.349  0.793E-03  0.793E-03
  -3.339  0.697E-03  0.697E-03
  -3.329  0.605E-03  0.605E-03
  -3.319  0.520E-03  0.520E-03
  -3.309  0.440E-03  0.440E-03
  -3.299  0.367E-03  0.367E-03
  -3.289  0.300E-03  0.300E-03
  -3.279  0.239E-03  0.239E-03
  -3.269  0.184E-03  0.184E-03
  -3.259  0.147E-03  0.147E-03
  -3.249  0.127E-03  0.127E-03
  -3.239  0.111E-03  0.111E-03
  -3.229  0.989E-04  0.989E-04
  -3.219  0.963E-04  0.963E-04
  -3.209  0.954E-04  0.954E-04
  -3.199  0.944E-04  0.944E-04
  -3.189  0.934E-04  0.934E-04
  -3.179  0.929E-04  0.929E-04
  -3.169  0.928E-04  0.928E-04
  -3.159  0.926E-04  0.926E-04
  -3.149  0.924E-04  0.924E-04
  -3.139  0.917E-04  0.917E-04
  -3.129  0.915E-04  0.915E-04
  -3.119  0.918E-04  0.918E-04
  -3.109  0.927E-04  0.927E-04
  -3.099  0.937E-04  0.937E-04
  -3.089  0.947E-04  0.947E-04
  -3.079  0.957E-04  0.957E-04
  -3.069  0.968E-04  0.968E-04
  -3.059  0.961E-04  0.961E-04
  -3.049  0.952E-04  0.952E-04
  -3.039  0.870E-04  0.870E-04
  -3.029  0.100E-03  0.100E-03
  -3.019  0.111E-03  0.111E-03
  -3.009  0.812E-04  0.812E-04
  -2.999  0.785E-04  0.785E-04
  -2.989  0.759E-04  0.759E-04
  -2.979  0.734E-04  0.734E-04
  -2.969  0.708E-04  0.708E-04
  -2.959  0.682E-04  0.682E-04
  -2.949  0.679E-04  0.679E-04
  -2.939  0.673E-04  0.673E-04
  -2.929  0.663E-04  0.663E-04
  -2.919  0.649E-04  0.649E-04
  -2.909  0.941E-04  0.941E-04
  -2.899  0.783E-04  0.783E-04
  -2.889  0.599E-04  0.599E-04
  -2.879  0.473E-04  0.473E-04
  -2.869  0.346E-04  0.346E-04
  -2.859  0.298E-04  0.298E-04
  -2.849  0.332E-04  0.332E-04
  -2.839  0.371E-04  0.371E-04
  -2.829  0.397E-04  0.397E-04
  -2.819  0.408E-04  0.408E-04
  -2.809  0.421E-04  0.421E-04
  -2.799  0.479E-04  0.479E-04
  -2.789  0.925E-04  0.925E-04
  -2.779  0.657E-04  0.657E-04
  -2.769  0.790E-04  0.790E-04
  -2.759  0.923E-04  0.923E-04
  -2.749  0.118E-03  0.118E-03
  -2.739  0.120E-03  0.120E-03
  -2.729  0.123E-03  0.123E-03
  -2.719  0.127E-03  0.127E-03
  -2.709  0.511E-03  0.511E-03
  -2.699  0.222E-03  0.222E-03
  -2.689  0.243E-03  0.243E-03
  -2.679  0.298E-03  0.298E-03
  -2.669  0.347E-03  0.347E-03
  -2.659  0.396E-03  0.396E-03
  -2.649  0.415E-03  0.415E-03
  -2.639  0.526E-03  0.526E-03
  -2.629  0.263E-03  0.263E-03
  -2.619  0.240E-03  0.240E-03
  -2.609  0.993E-04  0.993E-04
  -2.599  0.828E-04  0.828E-04
  -2.589  0.777E-04  0.777E-04
  -2.579  0.686E-04  0.686E-04
  -2.569  0.606E-04  0.606E-04
  -2.559  0.769E-04  0.769E-04
  -2.549  0.409E-04  0.409E-04
  -2.539  0.135E-03  0.135E-03
  -2.529  0.605E-04  0.605E-04
  -2.519  0.693E-04  0.693E-04
  -2.509  0.167E-03  0.167E-03
  -2.499  0.181E-03  0.181E-03
  -2.489  0.187E-03  0.187E-03
  -2.479  0.183E-03  0.183E-03
  -2.469  0.168E-03  0.168E-03
  -2.459  0.144E-03  0.144E-03
  -2.449  0.109E-03  0.109E-03
  -2.439  0.673E-04  0.673E-04
  -2.429  0.645E-04  0.645E-04
  -2.419  0.593E-04  0.593E-04
  -2.409  0.557E-04  0.557E-04
  -2.399  0.505E-04  0.505E-04
  -2.389  0.115E-03  0.115E-03
  -2.379  0.434E-03  0.434E-03
  -2.369  0.712E-04  0.712E-04
  -2.359  0.523E-04  0.523E-04
  -2.349  0.149E-03  0.149E-03
  -2.339  0.126E-03  0.126E-03
  -2.329  0.119E-03  0.119E-03
  -2.319  0.139E-03  0.139E-03
  -2.309  0.159E-03  0.159E-03
  -2.299  0.137E-03  0.137E-03
  -2.289  0.940E-04  0.940E-04
  -2.279  0.844E-04  0.844E-04
  -2.269  0.772E-04  0.772E-04
  -2.259  0.705E-04  0.705E-04
  -2.249  0.652E-04  0.652E-04
  -2.239  0.607E-04  0.607E-04
  -2.229  0.560E-04  0.560E-04
  -2.219  0.512E-04  0.512E-04
  -2.209  0.463E-04  0.463E-04
  -2.199  0.413E-04  0.413E-04
  -2.189  0.361E-04  0.361E-04
  -2.179  0.931E-04  0.931E-04
  -2.169  0.188E-04  0.188E-04
  -2.159  0.422E-04  0.422E-04
  -2.149  0.723E-04  0.723E-04
  -2.139  0.951E-04  0.951E-04
  -2.129  0.106E-03  0.106E-03
  -2.119  0.290E-04  0.290E-04
  -2.109  0.248E-04  0.248E-04
  -2.099  0.422E-04  0.422E-04
  -2.089  0.122E-04  0.122E-04
  -2.079  0.111E-04  0.111E-04
  -2.069  0.998E-05  0.998E-05
  -2.059  0.898E-05  0.898E-05
  -2.049  0.969E-05  0.969E-05
  -2.039  0.939E-05  0.939E-05
  -2.029  0.912E-05  0.912E-05
  -2.019  0.936E-05  0.936E-05
  -2.009  0.927E-05  0.927E-05
  -1.999  0.922E-05  0.922E-05
  -1.989  0.922E-05  0.922E-05
  -1.979  0.926E-05  0.926E-05
  -1.969  0.934E-05  0.934E-05
  -1.959  0.945E-05  0.945E-05
  -1.949  0.957E-05  0.957E-05
  -1.939  0.971E-05  0.971E-05
  -1.929  0.985E-05  0.985E-05
  -1.919  0.100E-04  0.100E-04
  -1.909  0.107E-04  0.107E-04
  -1.899  0.126E-04  0.126E-04
  -1.889  0.159E-04  0.159E-04
  -1.879  0.205E-04  0.205E-04
  -1.869  0.343E-04  0.343E-04
  -1.859  0.357E-03  0.357E-03
  -1.849  0.311E-03  0.311E-03
  -1.839  0.429E-03  0.429E-03
  -1.829  0.139E-03  0.139E-03
  -1.819  0.853E-04  0.853E-04
  -1.809  0.511E-04  0.511E-04
  -1.799  0.367E-04  0.367E-04
  -1.789  0.346E-04  0.346E-04
  -1.779  0.326E-04  0.326E-04
  -1.769  0.307E-04  0.307E-04
  -1.759  0.289E-04  0.289E-04
  -1.749  0.272E-04  0.272E-04
  -1.739  0.256E-04  0.256E-04
  -1.729  0.241E-04  0.241E-04
  -1.719  0.227E-04  0.227E-04
  -1.709  0.214E-04  0.214E-04
  -1.699  0.209E-04  0.209E-04
  -1.689  0.206E-04  0.206E-04
  -1.679  0.203E-04  0.203E-04
  -1.669  0.201E-04  0.201E-04
  -1.659  0.198E-04  0.198E-04
  -1.649  0.196E-04  0.196E-04
  -1.639  0.159E-04  0.159E-04
  -1.629  0.159E-04  0.159E-04
  -1.619  0.252E-04  0.252E-04
  -1.609  0.347E-04  0.347E-04
  -1.599  0.445E-04  0.445E-04
  -1.589  0.574E-04  0.574E-04
  -1.579  0.721E-04  0.721E-04
  -1.569  0.228E-04  0.228E-04
  -1.559  0.201E-04  0.201E-04
  -1.549  0.940E-04  0.940E-04
  -1.539  0.344E-04  0.344E-04
  -1.529  0.313E-04  0.313E-04
  -1.519  0.286E-04  0.286E-04
  -1.509  0.263E-04  0.263E-04
  -1.499  0.243E-04  0.243E-04
  -1.489  0.227E-04  0.227E-04
  -1.479  0.214E-04  0.214E-04
  -1.469  0.205E-04  0.205E-04
  -1.459  0.202E-04  0.202E-04
  -1.449  0.217E-04  0.217E-04
  -1.439  0.295E-04  0.295E-04
  -1.429  0.296E-04  0.296E-04
  -1.419  0.293E-04  0.293E-04
  -1.409  0.289E-04  0.289E-04
  -1.399  0.282E-04  0.282E-04
  -1.389  0.272E-04  0.272E-04
  -1.379  0.259E-04  0.259E-04
  -1.369  0.265E-04  0.265E-04
  -1.359  0.275E-04  0.275E-04
  -1.349  0.283E-04  0.283E-04
  -1.339  0.290E-04  0.290E-04
  -1.329  0.295E-04  0.295E-04
  -1.319  0.168E-04  0.168E-04
  -1.309  0.169E-04  0.169E-04
  -1.299  0.169E-04  0.169E-04
  -1.289  0.169E-04  0.169E-04
  -1.279  0.169E-04  0.169E-04
  -1.269  0.169E-04  0.169E-04
  -1.259  0.170E-04  0.170E-04
  -1.249  0.173E-04  0.173E-04
  -1.239  0.175E-04  0.175E-04
  -1.229  0.177E-04  0.177E-04
  -1.219  0.177E-04  0.177E-04
  -1.209  0.177E-04  0.177E-04
  -1.199  0.177E-04  0.177E-04
  -1.189  0.176E-04  0.176E-04
  -1.179  0.175E-04  0.175E-04
  -1.169  0.173E-04  0.173E-04
  -1.159  0.171E-04  0.171E-04
  -1.149  0.169E-04  0.169E-04
  -1.139  0.167E-04  0.167E-04
  -1.129  0.164E-04  0.164E-04
  -1.119  0.161E-04  0.161E-04
  -1.109  0.157E-04  0.157E-04
  -1.099  0.155E-04  0.155E-04
  -1.089  0.155E-04  0.155E-04
  -1.079  0.155E-04  0.155E-04
  -1.069  0.154E-04  0.154E-04
  -1.059  0.153E-04  0.153E-04
  -1.049  0.152E-04  0.152E-04
  -1.039  0.150E-04  0.150E-04
  -1.029  0.147E-04  0.147E-04
  -1.019  0.145E-04  0.145E-04
  -1.009  0.142E-04  0.142E-04
  -0.999  0.138E-04  0.138E-04
  -0.989  0.135E-04  0.135E-04
  -0.979  0.131E-04  0.131E-04
  -0.969  0.126E-04  0.126E-04
  -0.959  0.121E-04  0.121E-04
  -0.949  0.122E-04  0.122E-04
  -0.939  0.114E-04  0.114E-04
  -0.929  0.106E-04  0.106E-04
  -0.919  0.980E-05  0.980E-05
  -0.909  0.905E-05  0.905E-05
  -0.899  0.833E-05  0.833E-05
  -0.889  0.763E-05  0.763E-05
  -0.879  0.696E-05  0.696E-05
  -0.869  0.632E-05  0.632E-05
  -0.859  0.570E-05  0.570E-05
  -0.849  0.511E-05  0.511E-05
  -0.839  0.455E-05  0.455E-05
  -0.829  0.402E-05  0.402E-05
  -0.819  0.351E-05  0.351E-05
  -0.809  0.304E-05  0.304E-05
  -0.799  0.259E-05  0.259E-05
  -0.789  0.216E-05  0.216E-05
  -0.779  0.177E-05  0.177E-05
  -0.769  0.140E-05  0.140E-05
  -0.759  0.106E-05  0.106E-05
  -0.749  0.746E-06  0.746E-06
  -0.739  0.461E-06  0.461E-06
  -0.729  0.203E-06  0.203E-06
  -0.719  0.000E+00  0.000E+00
  -0.709  0.000E+00  0.000E+00
  -0.699  0.000E+00  0.000E+00
  -0.689  0.000E+00  0.000E+00
  -0.679  0.000E+00  0.000E+00
  -0.669  0.000E+00  0.000E+00
  -0.659  0.000E+00  0.000E+00
  -0.649  0.000E+00  0.000E+00
  -0.639  0.000E+00  0.000E+00
  -0.629  0.000E+00  0.000E+00
  -0.619  0.408E-06  0.408E-06
  -0.609  0.247E-05  0.247E-05
  -0.599  0.451E-05  0.451E-05
  -0.589  0.653E-05  0.653E-05
  -0.579  0.854E-05  0.854E-05
  -0.569  0.131E-04  0.131E-04
  -0.559  0.183E-04  0.183E-04
  -0.549  0.232E-04  0.232E-04
  -0.539  0.281E-04  0.281E-04
  -0.529  0.329E-04  0.329E-04
  -0.519  0.375E-04  0.375E-04
  -0.509  0.420E-04  0.420E-04
  -0.499  0.465E-04  0.465E-04
  -0.489  0.508E-04  0.508E-04
  -0.479  0.549E-04  0.549E-04
  -0.469  0.590E-04  0.590E-04
  -0.459  0.630E-04  0.630E-04
  -0.449  0.668E-04  0.668E-04
  -0.439  0.705E-04  0.705E-04
  -0.429  0.741E-04  0.741E-04
  -0.419  0.141E-03  0.141E-03
  -0.409  0.138E-03  0.138E-03
  -0.399  0.139E-03  0.139E-03
  -0.389  0.140E-03  0.140E-03
  -0.379  0.143E-03  0.143E-03
  -0.369  0.147E-03  0.147E-03
  -0.359  0.167E-03  0.167E-03
  -0.349  0.329E-03  0.329E-03
  -0.339  0.599E-03  0.599E-03
  -0.329  0.889E-03  0.889E-03
  -0.319  0.512E-03  0.512E-03
  -0.309  0.548E-03  0.548E-03
  -0.299  0.584E-03  0.584E-03
  -0.289  0.384E-03  0.384E-03
  -0.279  0.756E-04  0.756E-04
  -0.269  0.775E-04  0.775E-04
  -0.259  0.181E-03  0.181E-03
  -0.249  0.197E-03  0.197E-03
  -0.239  0.222E-03  0.222E-03
  -0.229  0.475E-03  0.475E-03
  -0.219  0.432E-04  0.432E-04
  -0.209  0.423E-04  0.423E-04
  -0.199  0.413E-04  0.413E-04
  -0.189  0.402E-04  0.402E-04
  -0.179  0.390E-04  0.390E-04
  -0.169  0.376E-04  0.376E-04
  -0.159  0.362E-04  0.362E-04
  -0.149  0.346E-04  0.346E-04
  -0.139  0.329E-04  0.329E-04
  -0.129  0.311E-04  0.311E-04
  -0.119  0.292E-04  0.292E-04
  -0.109  0.699E-04  0.699E-04
  -0.099  0.169E-03  0.169E-03
  -0.089  0.408E-03  0.408E-03
  -0.079  0.878E-03  0.878E-03
  -0.069  0.194E-02  0.194E-02
  -0.059  0.382E-02  0.382E-02
  -0.049  0.173E-02  0.173E-02
  -0.039  0.170E-02  0.170E-02
  -0.029  0.994E-03  0.994E-03
  -0.019  0.100E-02  0.100E-02
  -0.009  0.909E-03  0.909E-03
   0.001  0.785E-03  0.785E-03
   0.011  0.672E-03  0.672E-03
   0.021  0.524E-03  0.524E-03
   0.031  0.346E-03  0.346E-03
   0.041  0.272E-03  0.272E-03
   0.051  0.226E-03  0.226E-03
   0.061  0.185E-03  0.185E-03
   0.071  0.185E-03  0.185E-03
   0.081  0.142E-03  0.142E-03
   0.091  0.137E-03  0.137E-03
   0.101  0.140E-03  0.140E-03
   0.111  0.142E-03  0.142E-03
   0.121  0.145E-03  0.145E-03
   0.131  0.147E-03  0.147E-03
   0.141  0.150E-03  0.150E-03
   0.151  0.152E-03  0.152E-03
   0.161  0.154E-03  0.154E-03
   0.171  0.157E-03  0.157E-03
   0.181  0.159E-03  0.159E-03
   0.191  0.161E-03  0.161E-03
   0.201  0.163E-03  0.163E-03
   0.211  0.165E-03  0.165E-03
   0.221  0.167E-03  0.167E-03
   0.231  0.169E-03  0.169E-03
   0.241  0.171E-03  0.171E-03
   0.251  0.173E-03  0.173E-03
   0.261  0.174E-03  0.174E-03
   0.271  0.176E-03  0.176E-03
   0.281  0.178E-03  0.178E-03
   0.291  0.179E-03  0.179E-03
   0.301  0.181E-03  0.181E-03
   0.311  0.182E-03  0.182E-03
   0.321  0.184E-03  0.184E-03
   0.331  0.185E-03  0.185E-03
   0.341  0.186E-03  0.186E-03
   0.351  0.188E-03  0.188E-03
   0.361  0.189E-03  0.189E-03
   0.371  0.190E-03  0.190E-03
   0.381  0.197E-03  0.197E-03
   0.391  0.241E-03  0.241E-03
   0.401  0.311E-03  0.311E-03
   0.411  0.231E-03  0.231E-03
   0.421  0.237E-03  0.237E-03
   0.431  0.246E-03  0.246E-03
   0.441  0.275E-03  0.275E-03
   0.451  0.308E-03  0.308E-03
   0.461  0.344E-03  0.344E-03
   0.471  0.959E-03  0.959E-03
   0.481  0.143E-02  0.143E-02
   0.491  0.161E-02  0.161E-02
   0.501  0.149E-02  0.149E-02
   0.511  0.108E-02  0.108E-02
   0.521  0.854E-03  0.854E-03
   0.531  0.774E-03  0.774E-03
   0.541  0.801E-03  0.801E-03
   0.551  0.807E-03  0.807E-03
   0.561  0.761E-03  0.761E-03
   0.571  0.781E-03  0.781E-03
   0.581  0.845E-03  0.845E-03
   0.591  0.900E-03  0.900E-03
   0.601  0.107E-02  0.107E-02
   0.611  0.120E-02  0.120E-02
   0.621  0.123E-02  0.123E-02
   0.631  0.117E-02  0.117E-02
   0.641  0.116E-02  0.116E-02
   0.651  0.110E-02  0.110E-02
   0.661  0.102E-02  0.102E-02
   0.671  0.954E-03  0.954E-03
   0.681  0.893E-03  0.893E-03
   0.691  0.840E-03  0.840E-03
   0.701  0.797E-03  0.797E-03
   0.711  0.766E-03  0.766E-03
   0.721  0.742E-03  0.742E-03
   0.731  0.728E-03  0.728E-03
   0.741  0.722E-03  0.722E-03
   0.751  0.887E-03  0.887E-03
   0.761  0.832E-03  0.832E-03
   0.771  0.802E-03  0.802E-03
   0.781  0.795E-03  0.795E-03
   0.791  0.808E-03  0.808E-03
   0.801  0.804E-03  0.804E-03
   0.811  0.820E-03  0.820E-03
   0.821  0.859E-03  0.859E-03
   0.831  0.167E-02  0.167E-02
   0.841  0.132E-02  0.132E-02
   0.851  0.107E-02  0.107E-02
   0.861  0.929E-03  0.929E-03
   0.871  0.994E-03  0.994E-03
   0.881  0.130E-02  0.130E-02
   0.891  0.182E-02  0.182E-02
   0.901  0.148E-02  0.148E-02
   0.911  0.244E-02  0.244E-02
   0.921  0.299E-02  0.299E-02
   0.931  0.323E-02  0.323E-02
   0.941  0.336E-02  0.336E-02
   0.951  0.343E-02  0.343E-02
   0.961  0.344E-02  0.344E-02
   0.971  0.267E-02  0.267E-02
   0.981  0.284E-02  0.284E-02
   0.991  0.251E-02  0.251E-02
   1.001  0.311E-02  0.311E-02
   1.011  0.379E-02  0.379E-02
   1.021  0.456E-02  0.456E-02
   1.031  0.878E-02  0.878E-02
   1.041  0.379E-02  0.379E-02
   1.051  0.402E-02  0.402E-02
   1.061  0.398E-02  0.398E-02
   1.071  0.392E-02  0.392E-02
   1.081  0.385E-02  0.385E-02
   1.091  0.376E-02  0.376E-02
   1.101  0.365E-02  0.365E-02
   1.111  0.387E-02  0.387E-02
   1.121  0.342E-02  0.342E-02
   1.131  0.328E-02  0.328E-02
   1.141  0.397E-02  0.397E-02
   1.151  0.490E-02  0.490E-02
   1.161  0.596E-02  0.596E-02
   1.171  0.732E-02  0.732E-02
   1.181  0.867E-02  0.867E-02
   1.191  0.893E-02  0.893E-02
   1.201  0.978E-02  0.978E-02
   1.211  0.564E-01  0.564E-01
   1.221  0.101E+00  0.101E+00
   1.231  0.142E+00  0.142E+00
   1.241  0.102E+00  0.102E+00
   1.251  0.108E+00  0.108E+00
   1.261  0.117E+00  0.117E+00
   1.271  0.129E+00  0.129E+00
   1.281  0.143E+00  0.143E+00
   1.291  0.112E+00  0.112E+00
   1.301  0.114E+00  0.114E+00
   1.311  0.112E+00  0.112E+00
   1.321  0.115E+00  0.115E+00
   1.331  0.701E-01  0.701E-01
   1.341  0.603E-01  0.603E-01
   1.351  0.513E-01  0.513E-01
   1.361  0.440E-01  0.440E-01
   1.371  0.358E-01  0.358E-01
   1.381  0.281E-01  0.281E-01
   1.391  0.218E-01  0.218E-01
   1.401  0.162E-01  0.162E-01
   1.411  0.112E-01  0.112E-01
   1.421  0.685E-02  0.685E-02
   1.431  0.590E-02  0.590E-02
   1.441  0.570E-02  0.570E-02
   1.451  0.510E-02  0.510E-02
   1.461  0.410E-02  0.410E-02
   1.471  0.277E-02  0.277E-02
   1.481  0.252E-02  0.252E-02
   1.491  0.276E-02  0.276E-02
   1.501  0.372E-02  0.372E-02
   1.511  0.581E-02  0.581E-02
   1.521  0.986E-02  0.986E-02
   1.531  0.159E-01  0.159E-01
   1.541  0.437E-02  0.437E-02
   1.551  0.466E-02  0.466E-02
   1.561  0.163E-01  0.163E-01
   1.571  0.112E-01  0.112E-01
   1.581  0.939E-02  0.939E-02
   1.591  0.965E-02  0.965E-02
   1.601  0.100E-01  0.100E-01
   1.611  0.103E-01  0.103E-01
   1.621  0.102E-01  0.102E-01
   1.631  0.104E-01  0.104E-01
   1.641  0.104E-01  0.104E-01
   1.651  0.104E-01  0.104E-01
   1.661  0.106E-01  0.106E-01
   1.671  0.112E-01  0.112E-01
   1.681  0.123E-01  0.123E-01
   1.691  0.139E-01  0.139E-01
   1.701  0.160E-01  0.160E-01
   1.711  0.181E-01  0.181E-01
   1.721  0.202E-01  0.202E-01
   1.731  0.205E-01  0.205E-01
   1.741  0.230E-01  0.230E-01
   1.751  0.252E-01  0.252E-01
   1.761  0.272E-01  0.272E-01
   1.771  0.290E-01  0.290E-01
   1.781  0.834E-01  0.834E-01
   1.791  0.774E-01  0.774E-01
   1.801  0.685E-01  0.685E-01
   1.811  0.568E-01  0.568E-01
   1.821  0.422E-01  0.422E-01
   1.831  0.248E-01  0.248E-01
   1.841  0.210E-01  0.210E-01
   1.851  0.179E-01  0.179E-01
   1.861  0.147E-01  0.147E-01
   1.871  0.124E-01  0.124E-01
   1.881  0.992E-02  0.992E-02
   1.891  0.712E-02  0.712E-02
   1.901  0.403E-02  0.403E-02
   1.911  0.665E-03  0.665E-03
   1.921  0.000E+00  0.000E+00
