# E (eV)   ldos(E)   pdos(E)   
 -15.919  0.000E+00  0.000E+00
 -15.909  0.883E-01  0.883E-01
 -15.899  0.175E+00  0.175E+00
 -15.889  0.128E+00  0.128E+00
 -15.879  0.134E+00  0.134E+00
 -15.869  0.140E+00  0.140E+00
 -15.859  0.147E+00  0.147E+00
 -15.849  0.153E+00  0.153E+00
 -15.839  0.159E+00  0.159E+00
 -15.829  0.160E+00  0.160E+00
 -15.819  0.151E+00  0.151E+00
 -15.809  0.142E+00  0.142E+00
 -15.799  0.136E+00  0.136E+00
 -15.789  0.139E+00  0.139E+00
 -15.779  0.141E+00  0.141E+00
 -15.769  0.142E+00  0.142E+00
 -15.759  0.144E+00  0.144E+00
 -15.749  0.145E+00  0.145E+00
 -15.739  0.146E+00  0.146E+00
 -15.729  0.147E+00  0.147E+00
 -15.719  0.148E+00  0.148E+00
 -15.709  0.292E+00  0.292E+00
 -15.699  0.223E+00  0.223E+00
 -15.689  0.161E+00  0.161E+00
 -15.679  0.103E+00  0.103E+00
 -15.669  0.564E-01  0.564E-01
 -15.659  0.470E-01  0.470E-01
 -15.649  0.382E-01  0.382E-01
 -15.639  0.365E-01  0.365E-01
 -15.629  0.444E-01  0.444E-01
 -15.619  0.521E-01  0.521E-01
 -15.609  0.597E-01  0.597E-01
 -15.599  0.672E-01  0.672E-01
 -15.589  0.778E-01  0.778E-01
 -15.579  0.901E-01  0.901E-01
 -15.569  0.102E+00  0.102E+00
 -15.559  0.182E+00  0.182E+00
 -15.549  0.430E+00  0.430E+00
 -15.539  0.106E+00  0.106E+00
 -15.529  0.108E+00  0.108E+00
 -15.519  0.109E+00  0.109E+00
 -15.509  0.111E+00  0.111E+00
 -15.499  0.112E+00  0.112E+00
 -15.489  0.113E+00  0.113E+00
 -15.479  0.114E+00  0.114E+00
 -15.469  0.115E+00  0.115E+00
 -15.459  0.115E+00  0.115E+00
 -15.449  0.116E+00  0.116E+00
 -15.439  0.116E+00  0.116E+00
 -15.429  0.116E+00  0.116E+00
 -15.419  0.116E+00  0.116E+00
 -15.409  0.116E+00  0.116E+00
 -15.399  0.115E+00  0.115E+00
 -15.389  0.115E+00  0.115E+00
 -15.379  0.114E+00  0.114E+00
 -15.369  0.113E+00  0.113E+00
 -15.359  0.158E+00  0.158E+00
 -15.349  0.153E+00  0.153E+00
 -15.339  0.148E+00  0.148E+00
 -15.329  0.142E+00  0.142E+00
 -15.319  0.136E+00  0.136E+00
 -15.309  0.131E+00  0.131E+00
 -15.299  0.126E+00  0.126E+00
 -15.289  0.127E+00  0.127E+00
 -15.279  0.130E+00  0.130E+00
 -15.269  0.132E+00  0.132E+00
 -15.259  0.134E+00  0.134E+00
 -15.249  0.136E+00  0.136E+00
 -15.239  0.139E+00  0.139E+00
 -15.229  0.141E+00  0.141E+00
 -15.219  0.143E+00  0.143E+00
 -15.209  0.146E+00  0.146E+00
 -15.199  0.126E+00  0.126E+00
 -15.189  0.126E+00  0.126E+00
 -15.179  0.127E+00  0.127E+00
 -15.169  0.128E+00  0.128E+00
 -15.159  0.129E+00  0.129E+00
 -15.149  0.130E+00  0.130E+00
 -15.139  0.123E+00  0.123E+00
 -15.129  0.114E+00  0.114E+00
 -15.119  0.105E+00  0.105E+00
 -15.109  0.102E+00  0.102E+00
 -15.099  0.995E-01  0.995E-01
 -15.089  0.971E-01  0.971E-01
 -15.079  0.950E-01  0.950E-01
 -15.069  0.930E-01  0.930E-01
 -15.059  0.911E-01  0.911E-01
 -15.049  0.895E-01  0.895E-01
 -15.039  0.879E-01  0.879E-01
 -15.029  0.113E+00  0.113E+00
 -15.019  0.155E+00  0.155E+00
 -15.009  0.147E+00  0.147E+00
 -14.999  0.138E+00  0.138E+00
 -14.989  0.130E+00  0.130E+00
 -14.979  0.122E+00  0.122E+00
 -14.969  0.114E+00  0.114E+00
 -14.959  0.107E+00  0.107E+00
 -14.949  0.994E-01  0.994E-01
 -14.939  0.923E-01  0.923E-01
 -14.929  0.853E-01  0.853E-01
 -14.919  0.786E-01  0.786E-01
 -14.909  0.722E-01  0.722E-01
 -14.899  0.686E-01  0.686E-01
 -14.889  0.674E-01  0.674E-01
 -14.879  0.661E-01  0.661E-01
 -14.869  0.696E-01  0.696E-01
 -14.859  0.165E+00  0.165E+00
 -14.849  0.148E+00  0.148E+00
 -14.839  0.129E+00  0.129E+00
 -14.829  0.108E+00  0.108E+00
 -14.819  0.854E-01  0.854E-01
 -14.809  0.607E-01  0.607E-01
 -14.799  0.634E-01  0.634E-01
 -14.789  0.720E-01  0.720E-01
 -14.779  0.809E-01  0.809E-01
 -14.769  0.900E-01  0.900E-01
 -14.759  0.994E-01  0.994E-01
 -14.749  0.109E+00  0.109E+00
 -14.739  0.119E+00  0.119E+00
 -14.729  0.129E+00  0.129E+00
 -14.719  0.140E+00  0.140E+00
 -14.709  0.151E+00  0.151E+00
 -14.699  0.757E-01  0.757E-01
 -14.689  0.686E-01  0.686E-01
 -14.679  0.687E-01  0.687E-01
 -14.669  0.688E-01  0.688E-01
 -14.659  0.689E-01  0.689E-01
 -14.649  0.690E-01  0.690E-01
 -14.639  0.691E-01  0.691E-01
 -14.629  0.693E-01  0.693E-01
 -14.619  0.694E-01  0.694E-01
 -14.609  0.696E-01  0.696E-01
 -14.599  0.697E-01  0.697E-01
 -14.589  0.699E-01  0.699E-01
 -14.579  0.701E-01  0.701E-01
 -14.569  0.703E-01  0.703E-01
 -14.559  0.116E+00  0.116E+00
 -14.549  0.244E+00  0.244E+00
 -14.539  0.346E+00  0.346E+00
 -14.529  0.770E-01  0.770E-01
 -14.519  0.766E-01  0.766E-01
 -14.509  0.761E-01  0.761E-01
 -14.499  0.756E-01  0.756E-01
 -14.489  0.750E-01  0.750E-01
 -14.479  0.745E-01  0.745E-01
 -14.469  0.739E-01  0.739E-01
 -14.459  0.732E-01  0.732E-01
 -14.449  0.735E-01  0.735E-01
 -14.439  0.741E-01  0.741E-01
 -14.429  0.748E-01  0.748E-01
 -14.419  0.756E-01  0.756E-01
 -14.409  0.764E-01  0.764E-01
 -14.399  0.773E-01  0.773E-01
 -14.389  0.783E-01  0.783E-01
 -14.379  0.793E-01  0.793E-01
 -14.369  0.805E-01  0.805E-01
 -14.359  0.817E-01  0.817E-01
 -14.349  0.830E-01  0.830E-01
 -14.339  0.843E-01  0.843E-01
 -14.329  0.852E-01  0.852E-01
 -14.319  0.862E-01  0.862E-01
 -14.309  0.877E-01  0.877E-01
 -14.299  0.902E-01  0.902E-01
 -14.289  0.927E-01  0.927E-01
 -14.279  0.952E-01  0.952E-01
 -14.269  0.976E-01  0.976E-01
 -14.259  0.100E+00  0.100E+00
 -14.249  0.103E+00  0.103E+00
 -14.239  0.105E+00  0.105E+00
 -14.229  0.108E+00  0.108E+00
 -14.219  0.129E+00  0.129E+00
 -14.209  0.114E+00  0.114E+00
 -14.199  0.972E-01  0.972E-01
 -14.189  0.783E-01  0.783E-01
 -14.179  0.574E-01  0.574E-01
 -14.169  0.360E-01  0.360E-01
 -14.159  0.763E-01  0.763E-01
 -14.149  0.113E+00  0.113E+00
 -14.139  0.112E+00  0.112E+00
 -14.129  0.101E+00  0.101E+00
 -14.119  0.909E-01  0.909E-01
 -14.109  0.810E-01  0.810E-01
 -14.099  0.716E-01  0.716E-01
 -14.089  0.625E-01  0.625E-01
 -14.079  0.538E-01  0.538E-01
 -14.069  0.207E-01  0.207E-01
 -14.059  0.214E-01  0.214E-01
 -14.049  0.222E-01  0.222E-01
 -14.039  0.231E-01  0.231E-01
 -14.029  0.240E-01  0.240E-01
 -14.019  0.251E-01  0.251E-01
 -14.009  0.263E-01  0.263E-01
 -13.999  0.276E-01  0.276E-01
 -13.989  0.289E-01  0.289E-01
 -13.979  0.304E-01  0.304E-01
 -13.969  0.320E-01  0.320E-01
 -13.959  0.336E-01  0.336E-01
 -13.949  0.354E-01  0.354E-01
 -13.939  0.372E-01  0.372E-01
 -13.929  0.391E-01  0.391E-01
 -13.919  0.104E+00  0.104E+00
 -13.909  0.105E+00  0.105E+00
 -13.899  0.106E+00  0.106E+00
 -13.889  0.107E+00  0.107E+00
 -13.879  0.108E+00  0.108E+00
 -13.869  0.110E+00  0.110E+00
 -13.859  0.911E-01  0.911E-01
 -13.849  0.594E-01  0.594E-01
 -13.839  0.427E-01  0.427E-01
 -13.829  0.496E-01  0.496E-01
 -13.819  0.576E-01  0.576E-01
 -13.809  0.668E-01  0.668E-01
 -13.799  0.771E-01  0.771E-01
 -13.789  0.885E-01  0.885E-01
 -13.779  0.101E+00  0.101E+00
 -13.769  0.233E+00  0.233E+00
 -13.759  0.123E+00  0.123E+00
 -13.749  0.774E-01  0.774E-01
 -13.739  0.688E-01  0.688E-01
 -13.729  0.608E-01  0.608E-01
 -13.719  0.535E-01  0.535E-01
 -13.709  0.477E-01  0.477E-01
 -13.699  0.426E-01  0.426E-01
 -13.689  0.384E-01  0.384E-01
 -13.679  0.354E-01  0.354E-01
 -13.669  0.357E-01  0.357E-01
 -13.659  0.360E-01  0.360E-01
 -13.649  0.364E-01  0.364E-01
 -13.639  0.381E-01  0.381E-01
 -13.629  0.402E-01  0.402E-01
 -13.619  0.430E-01  0.430E-01
 -13.609  0.460E-01  0.460E-01
 -13.599  0.493E-01  0.493E-01
 -13.589  0.528E-01  0.528E-01
 -13.579  0.565E-01  0.565E-01
 -13.569  0.605E-01  0.605E-01
 -13.559  0.647E-01  0.647E-01
 -13.549  0.692E-01  0.692E-01
 -13.539  0.739E-01  0.739E-01
 -13.529  0.788E-01  0.788E-01
 -13.519  0.840E-01  0.840E-01
 -13.509  0.691E-01  0.691E-01
 -13.499  0.675E-01  0.675E-01
 -13.489  0.672E-01  0.672E-01
 -13.479  0.117E+00  0.117E+00
 -13.469  0.611E-01  0.611E-01
 -13.459  0.560E-01  0.560E-01
 -13.449  0.550E-01  0.550E-01
 -13.439  0.541E-01  0.541E-01
 -13.429  0.532E-01  0.532E-01
 -13.419  0.518E-01  0.518E-01
 -13.409  0.504E-01  0.504E-01
 -13.399  0.490E-01  0.490E-01
 -13.389  0.474E-01  0.474E-01
 -13.379  0.459E-01  0.459E-01
 -13.369  0.444E-01  0.444E-01
 -13.359  0.429E-01  0.429E-01
 -13.349  0.414E-01  0.414E-01
 -13.339  0.399E-01  0.399E-01
 -13.329  0.393E-01  0.393E-01
 -13.319  0.386E-01  0.386E-01
 -13.309  0.380E-01  0.380E-01
 -13.299  0.373E-01  0.373E-01
 -13.289  0.366E-01  0.366E-01
 -13.279  0.359E-01  0.359E-01
 -13.269  0.472E-01  0.472E-01
 -13.259  0.467E-01  0.467E-01
 -13.249  0.462E-01  0.462E-01
 -13.239  0.457E-01  0.457E-01
 -13.229  0.452E-01  0.452E-01
 -13.219  0.448E-01  0.448E-01
 -13.209  0.444E-01  0.444E-01
 -13.199  0.440E-01  0.440E-01
 -13.189  0.436E-01  0.436E-01
 -13.179  0.433E-01  0.433E-01
 -13.169  0.429E-01  0.429E-01
 -13.159  0.427E-01  0.427E-01
 -13.149  0.429E-01  0.429E-01
 -13.139  0.659E-01  0.659E-01
 -13.129  0.908E-01  0.908E-01
 -13.119  0.117E+00  0.117E+00
 -13.109  0.822E-01  0.822E-01
 -13.099  0.652E-01  0.652E-01
 -13.089  0.549E-01  0.549E-01
 -13.079  0.503E-01  0.503E-01
 -13.069  0.488E-01  0.488E-01
 -13.059  0.415E-01  0.415E-01
 -13.049  0.352E-01  0.352E-01
 -13.039  0.301E-01  0.301E-01
 -13.029  0.257E-01  0.257E-01
 -13.019  0.232E-02  0.232E-02
 -13.009  0.332E-02  0.332E-02
 -12.999  0.684E-02  0.684E-02
 -12.989  0.109E-01  0.109E-01
 -12.979  0.175E-01  0.175E-01
 -12.969  0.234E-01  0.234E-01
 -12.959  0.287E-01  0.287E-01
 -12.949  0.363E-01  0.363E-01
 -12.939  0.440E-01  0.440E-01
 -12.929  0.510E-01  0.510E-01
 -12.919  0.574E-01  0.574E-01
 -12.909  0.687E-01  0.687E-01
 -12.899  0.932E-01  0.932E-01
 -12.889  0.628E-01  0.628E-01
 -12.879  0.586E-01  0.586E-01
 -12.869  0.548E-01  0.548E-01
 -12.859  0.514E-01  0.514E-01
 -12.849  0.484E-01  0.484E-01
 -12.839  0.464E-01  0.464E-01
 -12.829  0.475E-01  0.475E-01
 -12.819  0.488E-01  0.488E-01
 -12.809  0.502E-01  0.502E-01
 -12.799  0.449E-01  0.449E-01
 -12.789  0.442E-01  0.442E-01
 -12.779  0.911E-01  0.911E-01
 -12.769  0.789E-01  0.789E-01
 -12.759  0.319E-01  0.319E-01
 -12.749  0.294E-01  0.294E-01
 -12.739  0.270E-01  0.270E-01
 -12.729  0.247E-01  0.247E-01
 -12.719  0.225E-01  0.225E-01
 -12.709  0.203E-01  0.203E-01
 -12.699  0.183E-01  0.183E-01
 -12.689  0.164E-01  0.164E-01
 -12.679  0.151E-01  0.151E-01
 -12.669  0.138E-01  0.138E-01
 -12.659  0.125E-01  0.125E-01
 -12.649  0.114E-01  0.114E-01
 -12.639  0.114E-01  0.114E-01
 -12.629  0.132E-01  0.132E-01
 -12.619  0.152E-01  0.152E-01
 -12.609  0.174E-01  0.174E-01
 -12.599  0.195E-01  0.195E-01
 -12.589  0.218E-01  0.218E-01
 -12.579  0.241E-01  0.241E-01
 -12.569  0.123E-01  0.123E-01
 -12.559  0.123E-01  0.123E-01
 -12.549  0.123E-01  0.123E-01
 -12.539  0.124E-01  0.124E-01
 -12.529  0.123E-01  0.123E-01
 -12.519  0.124E-01  0.124E-01
 -12.509  0.119E-01  0.119E-01
 -12.499  0.108E-01  0.108E-01
 -12.489  0.979E-02  0.979E-02
 -12.479  0.880E-02  0.880E-02
 -12.469  0.787E-02  0.787E-02
 -12.459  0.698E-02  0.698E-02
 -12.449  0.615E-02  0.615E-02
 -12.439  0.536E-02  0.536E-02
 -12.429  0.474E-02  0.474E-02
 -12.419  0.442E-02  0.442E-02
 -12.409  0.410E-02  0.410E-02
 -12.399  0.380E-02  0.380E-02
 -12.389  0.351E-02  0.351E-02
 -12.379  0.323E-02  0.323E-02
 -12.369  0.296E-02  0.296E-02
 -12.359  0.271E-02  0.271E-02
 -12.349  0.327E-02  0.327E-02
 -12.339  0.219E-02  0.219E-02
 -12.329  0.132E-02  0.132E-02
 -12.319  0.675E-03  0.675E-03
 -12.309  0.243E-03  0.243E-03
 -12.299  0.259E-04  0.259E-04
 -12.289  0.000E+00  0.000E+00
 -12.279  0.000E+00  0.000E+00
 -12.269  0.000E+00  0.000E+00
 -12.259  0.000E+00  0.000E+00
 -12.249  0.000E+00  0.000E+00
 -12.239  0.000E+00  0.000E+00
 -12.229  0.000E+00  0.000E+00
 -12.219  0.000E+00  0.000E+00
 -12.209  0.000E+00  0.000E+00
 -12.199  0.000E+00  0.000E+00
 -12.189  0.000E+00  0.000E+00
 -12.179  0.000E+00  0.000E+00
 -12.169  0.000E+00  0.000E+00
 -12.159  0.000E+00  0.000E+00
 -12.149  0.000E+00  0.000E+00
 -12.139  0.000E+00  0.000E+00
 -12.129  0.000E+00  0.000E+00
 -12.119  0.000E+00  0.000E+00
 -12.109  0.000E+00  0.000E+00
 -12.099  0.000E+00  0.000E+00
 -12.089  0.000E+00  0.000E+00
 -12.079  0.000E+00  0.000E+00
 -12.069  0.000E+00  0.000E+00
 -12.059  0.000E+00  0.000E+00
 -12.049  0.000E+00  0.000E+00
 -12.039  0.000E+00  0.000E+00
 -12.029  0.000E+00  0.000E+00
 -12.019  0.000E+00  0.000E+00
 -12.009  0.000E+00  0.000E+00
 -11.999  0.601E-04  0.601E-04
 -11.989  0.173E-03  0.173E-03
 -11.979  0.274E-03  0.274E-03
 -11.969  0.169E-03  0.169E-03
 -11.959  0.170E-03  0.170E-03
 -11.949  0.170E-03  0.170E-03
 -11.939  0.170E-03  0.170E-03
 -11.929  0.169E-03  0.169E-03
 -11.919  0.167E-03  0.167E-03
 -11.909  0.164E-03  0.164E-03
 -11.899  0.153E-03  0.153E-03
 -11.889  0.138E-03  0.138E-03
 -11.879  0.125E-03  0.125E-03
 -11.869  0.117E-03  0.117E-03
 -11.859  0.115E-03  0.115E-03
 -11.849  0.112E-03  0.112E-03
 -11.839  0.109E-03  0.109E-03
 -11.829  0.106E-03  0.106E-03
 -11.819  0.103E-03  0.103E-03
 -11.809  0.100E-03  0.100E-03
 -11.799  0.967E-04  0.967E-04
 -11.789  0.933E-04  0.933E-04
 -11.779  0.898E-04  0.898E-04
 -11.769  0.166E-03  0.166E-03
 -11.759  0.135E-03  0.135E-03
 -11.749  0.105E-03  0.105E-03
 -11.739  0.774E-04  0.774E-04
 -11.729  0.516E-04  0.516E-04
 -11.719  0.309E-04  0.309E-04
 -11.709  0.268E-04  0.268E-04
 -11.699  0.234E-04  0.234E-04
 -11.689  0.235E-04  0.235E-04
 -11.679  0.237E-04  0.237E-04
 -11.669  0.238E-04  0.238E-04
 -11.659  0.239E-04  0.239E-04
 -11.649  0.239E-04  0.239E-04
 -11.639  0.240E-04  0.240E-04
 -11.629  0.245E-04  0.245E-04
 -11.619  0.272E-04  0.272E-04
 -11.609  0.480E-04  0.480E-04
 -11.599  0.886E-04  0.886E-04
 -11.589  0.127E-03  0.127E-03
 -11.579  0.280E-04  0.280E-04
 -11.569  0.278E-04  0.278E-04
 -11.559  0.276E-04  0.276E-04
 -11.549  0.276E-04  0.276E-04
 -11.539  0.276E-04  0.276E-04
 -11.529  0.277E-04  0.277E-04
 -11.519  0.280E-04  0.280E-04
 -11.509  0.283E-04  0.283E-04
 -11.499  0.287E-04  0.287E-04
 -11.489  0.292E-04  0.292E-04
 -11.479  0.298E-04  0.298E-04
 -11.469  0.304E-04  0.304E-04
 -11.459  0.311E-04  0.311E-04
 -11.449  0.318E-04  0.318E-04
 -11.439  0.325E-04  0.325E-04
 -11.429  0.332E-04  0.332E-04
 -11.419  0.340E-04  0.340E-04
 -11.409  0.347E-04  0.347E-04
 -11.399  0.355E-04  0.355E-04
 -11.389  0.363E-04  0.363E-04
 -11.379  0.481E-04  0.481E-04
 -11.369  0.466E-04  0.466E-04
 -11.359  0.453E-04  0.453E-04
 -11.349  0.441E-04  0.441E-04
 -11.339  0.430E-04  0.430E-04
 -11.329  0.427E-04  0.427E-04
 -11.319  0.427E-04  0.427E-04
 -11.309  0.440E-04  0.440E-04
 -11.299  0.456E-04  0.456E-04
 -11.289  0.473E-04  0.473E-04
 -11.279  0.491E-04  0.491E-04
 -11.269  0.510E-04  0.510E-04
 -11.259  0.529E-04  0.529E-04
 -11.249  0.548E-04  0.548E-04
 -11.239  0.569E-04  0.569E-04
 -11.229  0.590E-04  0.590E-04
 -11.219  0.611E-04  0.611E-04
 -11.209  0.634E-04  0.634E-04
 -11.199  0.508E-04  0.508E-04
 -11.189  0.522E-04  0.522E-04
 -11.179  0.536E-04  0.536E-04
 -11.169  0.551E-04  0.551E-04
 -11.159  0.567E-04  0.567E-04
 -11.149  0.584E-04  0.584E-04
 -11.139  0.595E-04  0.595E-04
 -11.129  0.605E-04  0.605E-04
 -11.119  0.630E-04  0.630E-04
 -11.109  0.660E-04  0.660E-04
 -11.099  0.695E-04  0.695E-04
 -11.089  0.715E-04  0.715E-04
 -11.079  0.734E-04  0.734E-04
 -11.069  0.750E-04  0.750E-04
 -11.059  0.763E-04  0.763E-04
 -11.049  0.773E-04  0.773E-04
 -11.039  0.781E-04  0.781E-04
 -11.029  0.786E-04  0.786E-04
 -11.019  0.102E-03  0.102E-03
 -11.009  0.158E-03  0.158E-03
 -10.999  0.159E-03  0.159E-03
 -10.989  0.159E-03  0.159E-03
 -10.979  0.157E-03  0.157E-03
 -10.969  0.153E-03  0.153E-03
 -10.959  0.148E-03  0.148E-03
 -10.949  0.141E-03  0.141E-03
 -10.939  0.133E-03  0.133E-03
 -10.929  0.123E-03  0.123E-03
 -10.919  0.111E-03  0.111E-03
 -10.909  0.983E-04  0.983E-04
 -10.899  0.837E-04  0.837E-04
 -10.889  0.675E-04  0.675E-04
 -10.879  0.564E-04  0.564E-04
 -10.869  0.555E-04  0.555E-04
 -10.859  0.552E-04  0.552E-04
 -10.849  0.555E-04  0.555E-04
 -10.839  0.575E-04  0.575E-04
 -10.829  0.195E-03  0.195E-03
 -10.819  0.145E-03  0.145E-03
 -10.809  0.107E-03  0.107E-03
 -10.799  0.806E-04  0.806E-04
 -10.789  0.658E-04  0.658E-04
 -10.779  0.633E-04  0.633E-04
 -10.769  0.902E-04  0.902E-04
 -10.759  0.123E-03  0.123E-03
 -10.749  0.156E-03  0.156E-03
 -10.739  0.188E-03  0.188E-03
 -10.729  0.220E-03  0.220E-03
 -10.719  0.251E-03  0.251E-03
 -10.709  0.281E-03  0.281E-03
 -10.699  0.311E-03  0.311E-03
 -10.689  0.340E-03  0.340E-03
 -10.679  0.369E-03  0.369E-03
 -10.669  0.193E-03  0.193E-03
 -10.659  0.196E-03  0.196E-03
 -10.649  0.200E-03  0.200E-03
 -10.639  0.204E-03  0.204E-03
 -10.629  0.207E-03  0.207E-03
 -10.619  0.211E-03  0.211E-03
 -10.609  0.214E-03  0.214E-03
 -10.599  0.218E-03  0.218E-03
 -10.589  0.221E-03  0.221E-03
 -10.579  0.225E-03  0.225E-03
 -10.569  0.229E-03  0.229E-03
 -10.559  0.232E-03  0.232E-03
 -10.549  0.236E-03  0.236E-03
 -10.539  0.239E-03  0.239E-03
 -10.529  0.243E-03  0.243E-03
 -10.519  0.247E-03  0.247E-03
 -10.509  0.275E-03  0.275E-03
 -10.499  0.609E-03  0.609E-03
 -10.489  0.127E-02  0.127E-02
 -10.479  0.285E-03  0.285E-03
 -10.469  0.288E-03  0.288E-03
 -10.459  0.291E-03  0.291E-03
 -10.449  0.293E-03  0.293E-03
 -10.439  0.295E-03  0.295E-03
 -10.429  0.297E-03  0.297E-03
 -10.419  0.299E-03  0.299E-03
 -10.409  0.303E-03  0.303E-03
 -10.399  0.307E-03  0.307E-03
 -10.389  0.313E-03  0.313E-03
 -10.379  0.319E-03  0.319E-03
 -10.369  0.326E-03  0.326E-03
 -10.359  0.334E-03  0.334E-03
 -10.349  0.343E-03  0.343E-03
 -10.339  0.352E-03  0.352E-03
 -10.329  0.363E-03  0.363E-03
 -10.319  0.372E-03  0.372E-03
 -10.309  0.380E-03  0.380E-03
 -10.299  0.394E-03  0.394E-03
 -10.289  0.408E-03  0.408E-03
 -10.279  0.423E-03  0.423E-03
 -10.269  0.438E-03  0.438E-03
 -10.259  0.454E-03  0.454E-03
 -10.249  0.469E-03  0.469E-03
 -10.239  0.486E-03  0.486E-03
 -10.229  0.503E-03  0.503E-03
 -10.219  0.520E-03  0.520E-03
 -10.209  0.537E-03  0.537E-03
 -10.199  0.555E-03  0.555E-03
 -10.189  0.574E-03  0.574E-03
 -10.179  0.613E-03  0.613E-03
 -10.169  0.658E-03  0.658E-03
 -10.159  0.708E-03  0.708E-03
 -10.149  0.765E-03  0.765E-03
 -10.139  0.120E-02  0.120E-02
 -10.129  0.384E-03  0.384E-03
 -10.119  0.446E-03  0.446E-03
 -10.109  0.544E-03  0.544E-03
 -10.099  0.630E-03  0.630E-03
 -10.089  0.669E-03  0.669E-03
 -10.079  0.376E-03  0.376E-03
 -10.069  0.402E-03  0.402E-03
 -10.059  0.422E-03  0.422E-03
 -10.049  0.757E-03  0.757E-03
 -10.039  0.212E-02  0.212E-02
 -10.029  0.342E-02  0.342E-02
 -10.019  0.468E-02  0.468E-02
 -10.009  0.588E-02  0.588E-02
  -9.999  0.702E-02  0.702E-02
  -9.989  0.811E-02  0.811E-02
  -9.979  0.914E-02  0.914E-02
  -9.969  0.101E-01  0.101E-01
  -9.959  0.110E-01  0.110E-01
  -9.949  0.249E-01  0.249E-01
  -9.939  0.518E-01  0.518E-01
  -9.929  0.765E-01  0.765E-01
  -9.919  0.991E-01  0.991E-01
  -9.909  0.120E+00  0.120E+00
  -9.899  0.138E+00  0.138E+00
  -9.889  0.429E+00  0.429E+00
  -9.879  0.139E+00  0.139E+00
  -9.869  0.116E+00  0.116E+00
  -9.859  0.962E-01  0.962E-01
  -9.849  0.788E-01  0.788E-01
  -9.839  0.634E-01  0.634E-01
  -9.829  0.508E-01  0.508E-01
  -9.819  0.407E-01  0.407E-01
  -9.809  0.332E-01  0.332E-01
  -9.799  0.281E-01  0.281E-01
  -9.789  0.249E-01  0.249E-01
  -9.779  0.230E-01  0.230E-01
  -9.769  0.267E-01  0.267E-01
  -9.759  0.306E-01  0.306E-01
  -9.749  0.347E-01  0.347E-01
  -9.739  0.213E+00  0.213E+00
  -9.729  0.210E+00  0.210E+00
  -9.719  0.211E+00  0.211E+00
  -9.709  0.199E+00  0.199E+00
  -9.699  0.160E+00  0.160E+00
  -9.689  0.127E+00  0.127E+00
  -9.679  0.113E+00  0.113E+00
  -9.669  0.101E+00  0.101E+00
  -9.659  0.965E-01  0.965E-01
  -9.649  0.956E-01  0.956E-01
  -9.639  0.986E-01  0.986E-01
  -9.629  0.104E+00  0.104E+00
  -9.619  0.112E+00  0.112E+00
  -9.609  0.122E+00  0.122E+00
  -9.599  0.133E+00  0.133E+00
  -9.589  0.145E+00  0.145E+00
  -9.579  0.157E+00  0.157E+00
  -9.569  0.169E+00  0.169E+00
  -9.559  0.193E+00  0.193E+00
  -9.549  0.217E+00  0.217E+00
  -9.539  0.241E+00  0.241E+00
  -9.529  0.263E+00  0.263E+00
  -9.519  0.192E+00  0.192E+00
  -9.509  0.188E+00  0.188E+00
  -9.499  0.187E+00  0.187E+00
  -9.489  0.158E+00  0.158E+00
  -9.479  0.140E+00  0.140E+00
  -9.469  0.123E+00  0.123E+00
  -9.459  0.110E+00  0.110E+00
  -9.449  0.988E-01  0.988E-01
  -9.439  0.875E-01  0.875E-01
  -9.429  0.780E-01  0.780E-01
  -9.419  0.738E-01  0.738E-01
  -9.409  0.753E-01  0.753E-01
  -9.399  0.764E-01  0.764E-01
  -9.389  0.773E-01  0.773E-01
  -9.379  0.845E-01  0.845E-01
  -9.369  0.936E-01  0.936E-01
  -9.359  0.103E+00  0.103E+00
  -9.349  0.112E+00  0.112E+00
  -9.339  0.123E+00  0.123E+00
  -9.329  0.141E+00  0.141E+00
  -9.319  0.158E+00  0.158E+00
  -9.309  0.175E+00  0.175E+00
  -9.299  0.193E+00  0.193E+00
  -9.289  0.790E+00  0.790E+00
  -9.279  0.619E+00  0.619E+00
  -9.269  0.448E+00  0.448E+00
  -9.259  0.337E+00  0.337E+00
  -9.249  0.239E+00  0.239E+00
  -9.239  0.147E+00  0.147E+00
  -9.229  0.103E+00  0.103E+00
  -9.219  0.101E+00  0.101E+00
  -9.209  0.996E-01  0.996E-01
  -9.199  0.980E-01  0.980E-01
  -9.189  0.102E+00  0.102E+00
  -9.179  0.114E+00  0.114E+00
  -9.169  0.125E+00  0.125E+00
  -9.159  0.135E+00  0.135E+00
  -9.149  0.144E+00  0.144E+00
  -9.139  0.151E+00  0.151E+00
  -9.129  0.157E+00  0.157E+00
  -9.119  0.155E+00  0.155E+00
  -9.109  0.151E+00  0.151E+00
  -9.099  0.147E+00  0.147E+00
  -9.089  0.143E+00  0.143E+00
  -9.079  0.138E+00  0.138E+00
  -9.069  0.134E+00  0.134E+00
  -9.059  0.129E+00  0.129E+00
  -9.049  0.417E+00  0.417E+00
  -9.039  0.150E+00  0.150E+00
  -9.029  0.698E-01  0.698E-01
  -9.019  0.700E-01  0.700E-01
  -9.009  0.702E-01  0.702E-01
  -8.999  0.703E-01  0.703E-01
  -8.989  0.704E-01  0.704E-01
  -8.979  0.703E-01  0.703E-01
  -8.969  0.702E-01  0.702E-01
  -8.959  0.701E-01  0.701E-01
  -8.949  0.698E-01  0.698E-01
  -8.939  0.695E-01  0.695E-01
  -8.929  0.118E+00  0.118E+00
  -8.919  0.113E+00  0.113E+00
  -8.909  0.108E+00  0.108E+00
  -8.899  0.103E+00  0.103E+00
  -8.889  0.979E-01  0.979E-01
  -8.879  0.931E-01  0.931E-01
  -8.869  0.883E-01  0.883E-01
  -8.859  0.835E-01  0.835E-01
  -8.849  0.119E+00  0.119E+00
  -8.839  0.110E+00  0.110E+00
  -8.829  0.101E+00  0.101E+00
  -8.819  0.927E-01  0.927E-01
  -8.809  0.843E-01  0.843E-01
  -8.799  0.761E-01  0.761E-01
  -8.789  0.680E-01  0.680E-01
  -8.779  0.601E-01  0.601E-01
  -8.769  0.524E-01  0.524E-01
  -8.759  0.449E-01  0.449E-01
  -8.749  0.376E-01  0.376E-01
  -8.739  0.304E-01  0.304E-01
  -8.729  0.242E-01  0.242E-01
  -8.719  0.183E-01  0.183E-01
  -8.709  0.131E-01  0.131E-01
  -8.699  0.193E-01  0.193E-01
  -8.689  0.272E-01  0.272E-01
  -8.679  0.324E-01  0.324E-01
  -8.669  0.344E-01  0.344E-01
  -8.659  0.343E-01  0.343E-01
  -8.649  0.326E-01  0.326E-01
  -8.639  0.369E-01  0.369E-01
  -8.629  0.429E-01  0.429E-01
  -8.619  0.463E-01  0.463E-01
  -8.609  0.467E-01  0.467E-01
  -8.599  0.439E-01  0.439E-01
  -8.589  0.451E-01  0.451E-01
  -8.579  0.491E-01  0.491E-01
  -8.569  0.529E-01  0.529E-01
  -8.559  0.566E-01  0.566E-01
  -8.549  0.601E-01  0.601E-01
  -8.539  0.635E-01  0.635E-01
  -8.529  0.667E-01  0.667E-01
  -8.519  0.699E-01  0.699E-01
  -8.509  0.728E-01  0.728E-01
  -8.499  0.756E-01  0.756E-01
  -8.489  0.783E-01  0.783E-01
  -8.479  0.815E-01  0.815E-01
  -8.469  0.851E-01  0.851E-01
  -8.459  0.886E-01  0.886E-01
  -8.449  0.920E-01  0.920E-01
  -8.439  0.953E-01  0.953E-01
  -8.429  0.986E-01  0.986E-01
  -8.419  0.102E+00  0.102E+00
  -8.409  0.105E+00  0.105E+00
  -8.399  0.108E+00  0.108E+00
  -8.389  0.111E+00  0.111E+00
  -8.379  0.746E-01  0.746E-01
  -8.369  0.715E-01  0.715E-01
  -8.359  0.923E-01  0.923E-01
  -8.349  0.689E-01  0.689E-01
  -8.339  0.594E-01  0.594E-01
  -8.329  0.513E-01  0.513E-01
  -8.319  0.446E-01  0.446E-01
  -8.309  0.393E-01  0.393E-01
  -8.299  0.353E-01  0.353E-01
  -8.289  0.373E-01  0.373E-01
  -8.279  0.103E+00  0.103E+00
  -8.269  0.321E-01  0.321E-01
  -8.259  0.309E-01  0.309E-01
  -8.249  0.301E-01  0.301E-01
  -8.239  0.296E-01  0.296E-01
  -8.229  0.294E-01  0.294E-01
  -8.219  0.295E-01  0.295E-01
  -8.209  0.299E-01  0.299E-01
  -8.199  0.304E-01  0.304E-01
  -8.189  0.309E-01  0.309E-01
  -8.179  0.315E-01  0.315E-01
  -8.169  0.304E-01  0.304E-01
  -8.159  0.311E-01  0.311E-01
  -8.149  0.319E-01  0.319E-01
  -8.139  0.329E-01  0.329E-01
  -8.129  0.339E-01  0.339E-01
  -8.119  0.351E-01  0.351E-01
  -8.109  0.364E-01  0.364E-01
  -8.099  0.379E-01  0.379E-01
  -8.089  0.395E-01  0.395E-01
  -8.079  0.418E-01  0.418E-01
  -8.069  0.454E-01  0.454E-01
  -8.059  0.502E-01  0.502E-01
  -8.049  0.561E-01  0.561E-01
  -8.039  0.632E-01  0.632E-01
  -8.029  0.718E-01  0.718E-01
  -8.019  0.817E-01  0.817E-01
  -8.009  0.913E-01  0.913E-01
  -7.999  0.796E-01  0.796E-01
  -7.989  0.696E-01  0.696E-01
  -7.979  0.150E+00  0.150E+00
  -7.969  0.106E+00  0.106E+00
  -7.959  0.736E-01  0.736E-01
  -7.949  0.522E-01  0.522E-01
  -7.939  0.415E-01  0.415E-01
  -7.929  0.364E-01  0.364E-01
  -7.919  0.315E-01  0.315E-01
  -7.909  0.267E-01  0.267E-01
  -7.899  0.220E-01  0.220E-01
  -7.889  0.175E-01  0.175E-01
  -7.879  0.134E-01  0.134E-01
  -7.869  0.118E-01  0.118E-01
  -7.859  0.111E-01  0.111E-01
  -7.849  0.111E-01  0.111E-01
  -7.839  0.112E-01  0.112E-01
  -7.829  0.116E-01  0.116E-01
  -7.819  0.121E-01  0.121E-01
  -7.809  0.128E-01  0.128E-01
  -7.799  0.136E-01  0.136E-01
  -7.789  0.145E-01  0.145E-01
  -7.779  0.152E-01  0.152E-01
  -7.769  0.160E-01  0.160E-01
  -7.759  0.168E-01  0.168E-01
  -7.749  0.175E-01  0.175E-01
  -7.739  0.183E-01  0.183E-01
  -7.729  0.190E-01  0.190E-01
  -7.719  0.197E-01  0.197E-01
  -7.709  0.204E-01  0.204E-01
  -7.699  0.211E-01  0.211E-01
  -7.689  0.218E-01  0.218E-01
  -7.679  0.224E-01  0.224E-01
  -7.669  0.230E-01  0.230E-01
  -7.659  0.236E-01  0.236E-01
  -7.649  0.213E-01  0.213E-01
  -7.639  0.209E-01  0.209E-01
  -7.629  0.347E-01  0.347E-01
  -7.619  0.718E-01  0.718E-01
  -7.609  0.775E-01  0.775E-01
  -7.599  0.426E-01  0.426E-01
  -7.589  0.296E-01  0.296E-01
  -7.579  0.310E-01  0.310E-01
  -7.569  0.323E-01  0.323E-01
  -7.559  0.334E-01  0.334E-01
  -7.549  0.345E-01  0.345E-01
  -7.539  0.355E-01  0.355E-01
  -7.529  0.363E-01  0.363E-01
  -7.519  0.370E-01  0.370E-01
  -7.509  0.377E-01  0.377E-01
  -7.499  0.382E-01  0.382E-01
  -7.489  0.386E-01  0.386E-01
  -7.479  0.389E-01  0.389E-01
  -7.469  0.391E-01  0.391E-01
  -7.459  0.392E-01  0.392E-01
  -7.449  0.392E-01  0.392E-01
  -7.439  0.390E-01  0.390E-01
  -7.429  0.387E-01  0.387E-01
  -7.419  0.101E+00  0.101E+00
  -7.409  0.851E-01  0.851E-01
  -7.399  0.699E-01  0.699E-01
  -7.389  0.574E-01  0.574E-01
  -7.379  0.480E-01  0.480E-01
  -7.369  0.409E-01  0.409E-01
  -7.359  0.362E-01  0.362E-01
  -7.349  0.338E-01  0.338E-01
  -7.339  0.328E-01  0.328E-01
  -7.329  0.316E-01  0.316E-01
  -7.319  0.302E-01  0.302E-01
  -7.309  0.285E-01  0.285E-01
  -7.299  0.267E-01  0.267E-01
  -7.289  0.253E-01  0.253E-01
  -7.279  0.244E-01  0.244E-01
  -7.269  0.265E-01  0.265E-01
  -7.259  0.266E-01  0.266E-01
  -7.249  0.267E-01  0.267E-01
  -7.239  0.271E-01  0.271E-01
  -7.229  0.275E-01  0.275E-01
  -7.219  0.276E-01  0.276E-01
  -7.209  0.275E-01  0.275E-01
  -7.199  0.274E-01  0.274E-01
  -7.189  0.273E-01  0.273E-01
  -7.179  0.272E-01  0.272E-01
  -7.169  0.271E-01  0.271E-01
  -7.159  0.270E-01  0.270E-01
  -7.149  0.269E-01  0.269E-01
  -7.139  0.267E-01  0.267E-01
  -7.129  0.266E-01  0.266E-01
  -7.119  0.265E-01  0.265E-01
  -7.109  0.263E-01  0.263E-01
  -7.099  0.262E-01  0.262E-01
  -7.089  0.260E-01  0.260E-01
  -7.079  0.258E-01  0.258E-01
  -7.069  0.257E-01  0.257E-01
  -7.059  0.255E-01  0.255E-01
  -7.049  0.253E-01  0.253E-01
  -7.039  0.251E-01  0.251E-01
  -7.029  0.249E-01  0.249E-01
  -7.019  0.285E-01  0.285E-01
  -7.009  0.323E-01  0.323E-01
  -6.999  0.277E-01  0.277E-01
  -6.989  0.424E-01  0.424E-01
  -6.979  0.948E-01  0.948E-01
  -6.969  0.424E-01  0.424E-01
  -6.959  0.406E-01  0.406E-01
  -6.949  0.389E-01  0.389E-01
  -6.939  0.374E-01  0.374E-01
  -6.929  0.361E-01  0.361E-01
  -6.919  0.349E-01  0.349E-01
  -6.909  0.339E-01  0.339E-01
  -6.899  0.330E-01  0.330E-01
  -6.889  0.535E-01  0.535E-01
  -6.879  0.469E-01  0.469E-01
  -6.869  0.403E-01  0.403E-01
  -6.859  0.338E-01  0.338E-01
  -6.849  0.183E+00  0.183E+00
  -6.839  0.516E-01  0.516E-01
  -6.829  0.666E-01  0.666E-01
  -6.819  0.658E-01  0.658E-01
  -6.809  0.253E-01  0.253E-01
  -6.799  0.225E-01  0.225E-01
  -6.789  0.197E-01  0.197E-01
  -6.779  0.171E-01  0.171E-01
  -6.769  0.146E-01  0.146E-01
  -6.759  0.122E-01  0.122E-01
  -6.749  0.994E-02  0.994E-02
  -6.739  0.776E-02  0.776E-02
  -6.729  0.569E-02  0.569E-02
  -6.719  0.410E-02  0.410E-02
  -6.709  0.357E-02  0.357E-02
  -6.699  0.389E-02  0.389E-02
  -6.689  0.433E-02  0.433E-02
  -6.679  0.634E-02  0.634E-02
  -6.669  0.904E-02  0.904E-02
  -6.659  0.114E-01  0.114E-01
  -6.649  0.127E-01  0.127E-01
  -6.639  0.129E-01  0.129E-01
  -6.629  0.119E-01  0.119E-01
  -6.619  0.971E-02  0.971E-02
  -6.609  0.742E-02  0.742E-02
  -6.599  0.104E-01  0.104E-01
  -6.589  0.127E-01  0.127E-01
  -6.579  0.141E-01  0.141E-01
  -6.569  0.149E-01  0.149E-01
  -6.559  0.148E-01  0.148E-01
  -6.549  0.141E-01  0.141E-01
  -6.539  0.288E-01  0.288E-01
  -6.529  0.429E-01  0.429E-01
  -6.519  0.372E-01  0.372E-01
  -6.509  0.185E-01  0.185E-01
  -6.499  0.195E-01  0.195E-01
  -6.489  0.205E-01  0.205E-01
  -6.479  0.217E-01  0.217E-01
  -6.469  0.230E-01  0.230E-01
  -6.459  0.243E-01  0.243E-01
  -6.449  0.255E-01  0.255E-01
  -6.439  0.267E-01  0.267E-01
  -6.429  0.278E-01  0.278E-01
  -6.419  0.288E-01  0.288E-01
  -6.409  0.298E-01  0.298E-01
  -6.399  0.307E-01  0.307E-01
  -6.389  0.315E-01  0.315E-01
  -6.379  0.324E-01  0.324E-01
  -6.369  0.338E-01  0.338E-01
  -6.359  0.357E-01  0.357E-01
  -6.349  0.382E-01  0.382E-01
  -6.339  0.414E-01  0.414E-01
  -6.329  0.451E-01  0.451E-01
  -6.319  0.235E+00  0.235E+00
  -6.309  0.105E+00  0.105E+00
  -6.299  0.389E-01  0.389E-01
  -6.289  0.205E-01  0.205E-01
  -6.279  0.256E-01  0.256E-01
  -6.269  0.323E-01  0.323E-01
  -6.259  0.401E-01  0.401E-01
  -6.249  0.490E-01  0.490E-01
  -6.239  0.202E-01  0.202E-01
  -6.229  0.199E-01  0.199E-01
  -6.219  0.195E-01  0.195E-01
  -6.209  0.191E-01  0.191E-01
  -6.199  0.187E-01  0.187E-01
  -6.189  0.187E-01  0.187E-01
  -6.179  0.185E-01  0.185E-01
  -6.169  0.183E-01  0.183E-01
  -6.159  0.189E-01  0.189E-01
  -6.149  0.190E-01  0.190E-01
  -6.139  0.196E-01  0.196E-01
  -6.129  0.205E-01  0.205E-01
  -6.119  0.227E-01  0.227E-01
  -6.109  0.228E-01  0.228E-01
  -6.099  0.220E-01  0.220E-01
  -6.089  0.216E-01  0.216E-01
  -6.079  0.210E-01  0.210E-01
  -6.069  0.205E-01  0.205E-01
  -6.059  0.200E-01  0.200E-01
  -6.049  0.197E-01  0.197E-01
  -6.039  0.194E-01  0.194E-01
  -6.029  0.191E-01  0.191E-01
  -6.019  0.188E-01  0.188E-01
  -6.009  0.185E-01  0.185E-01
  -5.999  0.183E-01  0.183E-01
  -5.989  0.181E-01  0.181E-01
  -5.979  0.180E-01  0.180E-01
  -5.969  0.179E-01  0.179E-01
  -5.959  0.181E-01  0.181E-01
  -5.949  0.183E-01  0.183E-01
  -5.939  0.186E-01  0.186E-01
  -5.929  0.189E-01  0.189E-01
  -5.919  0.194E-01  0.194E-01
  -5.909  0.206E-01  0.206E-01
  -5.899  0.206E-01  0.206E-01
  -5.889  0.213E-01  0.213E-01
  -5.879  0.220E-01  0.220E-01
  -5.869  0.230E-01  0.230E-01
  -5.859  0.252E-01  0.252E-01
  -5.849  0.275E-01  0.275E-01
  -5.839  0.296E-01  0.296E-01
  -5.829  0.316E-01  0.316E-01
  -5.819  0.341E-01  0.341E-01
  -5.809  0.369E-01  0.369E-01
  -5.799  0.392E-01  0.392E-01
  -5.789  0.410E-01  0.410E-01
  -5.779  0.422E-01  0.422E-01
  -5.769  0.430E-01  0.430E-01
  -5.759  0.433E-01  0.433E-01
  -5.749  0.430E-01  0.430E-01
  -5.739  0.422E-01  0.422E-01
  -5.729  0.381E-01  0.381E-01
  -5.719  0.318E-01  0.318E-01
  -5.709  0.245E-01  0.245E-01
  -5.699  0.177E-01  0.177E-01
  -5.689  0.189E-01  0.189E-01
  -5.679  0.202E-01  0.202E-01
  -5.669  0.202E-01  0.202E-01
  -5.659  0.200E-01  0.200E-01
  -5.649  0.198E-01  0.198E-01
  -5.639  0.195E-01  0.195E-01
  -5.629  0.193E-01  0.193E-01
  -5.619  0.190E-01  0.190E-01
  -5.609  0.188E-01  0.188E-01
  -5.599  0.186E-01  0.186E-01
  -5.589  0.184E-01  0.184E-01
  -5.579  0.182E-01  0.182E-01
  -5.569  0.152E-01  0.152E-01
  -5.559  0.151E-01  0.151E-01
  -5.549  0.150E-01  0.150E-01
  -5.539  0.149E-01  0.149E-01
  -5.529  0.148E-01  0.148E-01
  -5.519  0.147E-01  0.147E-01
  -5.509  0.146E-01  0.146E-01
  -5.499  0.145E-01  0.145E-01
  -5.489  0.144E-01  0.144E-01
  -5.479  0.143E-01  0.143E-01
  -5.469  0.142E-01  0.142E-01
  -5.459  0.141E-01  0.141E-01
  -5.449  0.141E-01  0.141E-01
  -5.439  0.140E-01  0.140E-01
  -5.429  0.139E-01  0.139E-01
  -5.419  0.138E-01  0.138E-01
  -5.409  0.137E-01  0.137E-01
  -5.399  0.385E-01  0.385E-01
  -5.389  0.169E-01  0.169E-01
  -5.379  0.863E-02  0.863E-02
  -5.369  0.891E-02  0.891E-02
  -5.359  0.976E-02  0.976E-02
  -5.349  0.104E-01  0.104E-01
  -5.339  0.109E-01  0.109E-01
  -5.329  0.112E-01  0.112E-01
  -5.319  0.113E-01  0.113E-01
  -5.309  0.112E-01  0.112E-01
  -5.299  0.110E-01  0.110E-01
  -5.289  0.105E-01  0.105E-01
  -5.279  0.988E-02  0.988E-02
  -5.269  0.920E-02  0.920E-02
  -5.259  0.108E-01  0.108E-01
  -5.249  0.142E-01  0.142E-01
  -5.239  0.169E-01  0.169E-01
  -5.229  0.171E-01  0.171E-01
  -5.219  0.181E-01  0.181E-01
  -5.209  0.197E-01  0.197E-01
  -5.199  0.220E-01  0.220E-01
  -5.189  0.260E-01  0.260E-01
  -5.179  0.448E-01  0.448E-01
  -5.169  0.571E-01  0.571E-01
  -5.159  0.729E-01  0.729E-01
  -5.149  0.283E-01  0.283E-01
  -5.139  0.241E-01  0.241E-01
  -5.129  0.202E-01  0.202E-01
  -5.119  0.167E-01  0.167E-01
  -5.109  0.136E-01  0.136E-01
  -5.099  0.108E-01  0.108E-01
  -5.089  0.852E-02  0.852E-02
  -5.079  0.668E-02  0.668E-02
  -5.069  0.526E-02  0.526E-02
  -5.059  0.426E-02  0.426E-02
  -5.049  0.393E-02  0.393E-02
  -5.039  0.424E-02  0.424E-02
  -5.029  0.463E-02  0.463E-02
  -5.019  0.506E-02  0.506E-02
  -5.009  0.797E-02  0.797E-02
  -4.999  0.108E-01  0.108E-01
  -4.989  0.128E-01  0.128E-01
  -4.979  0.172E-01  0.172E-01
  -4.969  0.213E-01  0.213E-01
  -4.959  0.231E-01  0.231E-01
  -4.949  0.228E-01  0.228E-01
  -4.939  0.247E-01  0.247E-01
  -4.929  0.241E-01  0.241E-01
  -4.919  0.203E-01  0.203E-01
  -4.909  0.136E-01  0.136E-01
  -4.899  0.610E-02  0.610E-02
  -4.889  0.176E-01  0.176E-01
  -4.879  0.540E-02  0.540E-02
  -4.869  0.187E-02  0.187E-02
  -4.859  0.169E-02  0.169E-02
  -4.849  0.177E-02  0.177E-02
  -4.839  0.213E-02  0.213E-02
  -4.829  0.280E-02  0.280E-02
  -4.819  0.376E-02  0.376E-02
  -4.809  0.502E-02  0.502E-02
  -4.799  0.346E-02  0.346E-02
  -4.789  0.393E-02  0.393E-02
  -4.779  0.450E-02  0.450E-02
  -4.769  0.516E-02  0.516E-02
  -4.759  0.581E-02  0.581E-02
  -4.749  0.661E-02  0.661E-02
  -4.739  0.749E-02  0.749E-02
  -4.729  0.844E-02  0.844E-02
  -4.719  0.947E-02  0.947E-02
  -4.709  0.106E-01  0.106E-01
  -4.699  0.122E-01  0.122E-01
  -4.689  0.266E-01  0.266E-01
  -4.679  0.371E-01  0.371E-01
  -4.669  0.311E-01  0.311E-01
  -4.659  0.221E-01  0.221E-01
  -4.649  0.150E-01  0.150E-01
  -4.639  0.100E-01  0.100E-01
  -4.629  0.710E-02  0.710E-02
  -4.619  0.674E-02  0.674E-02
  -4.609  0.134E-01  0.134E-01
  -4.599  0.699E-02  0.699E-02
  -4.589  0.607E-02  0.607E-02
  -4.579  0.593E-02  0.593E-02
  -4.569  0.585E-02  0.585E-02
  -4.559  0.719E-02  0.719E-02
  -4.549  0.871E-02  0.871E-02
  -4.539  0.101E-01  0.101E-01
  -4.529  0.113E-01  0.113E-01
  -4.519  0.120E-01  0.120E-01
  -4.509  0.122E-01  0.122E-01
  -4.499  0.130E-01  0.130E-01
  -4.489  0.137E-01  0.137E-01
  -4.479  0.179E-01  0.179E-01
  -4.469  0.160E-01  0.160E-01
  -4.459  0.851E-02  0.851E-02
  -4.449  0.725E-02  0.725E-02
  -4.439  0.634E-02  0.634E-02
  -4.429  0.629E-02  0.629E-02
  -4.419  0.619E-02  0.619E-02
  -4.409  0.604E-02  0.604E-02
  -4.399  0.584E-02  0.584E-02
  -4.389  0.560E-02  0.560E-02
  -4.379  0.534E-02  0.534E-02
  -4.369  0.505E-02  0.505E-02
  -4.359  0.483E-02  0.483E-02
  -4.349  0.473E-02  0.473E-02
  -4.339  0.484E-02  0.484E-02
  -4.329  0.455E-02  0.455E-02
  -4.319  0.392E-02  0.392E-02
  -4.309  0.305E-02  0.305E-02
  -4.299  0.261E-02  0.261E-02
  -4.289  0.297E-02  0.297E-02
  -4.279  0.342E-02  0.342E-02
  -4.269  0.390E-02  0.390E-02
  -4.259  0.365E-02  0.365E-02
  -4.249  0.196E-02  0.196E-02
  -4.239  0.228E-02  0.228E-02
  -4.229  0.293E-02  0.293E-02
  -4.219  0.382E-02  0.382E-02
  -4.209  0.530E-02  0.530E-02
  -4.199  0.621E-02  0.621E-02
  -4.189  0.669E-02  0.669E-02
  -4.179  0.710E-02  0.710E-02
  -4.169  0.743E-02  0.743E-02
  -4.159  0.769E-02  0.769E-02
  -4.149  0.787E-02  0.787E-02
  -4.139  0.798E-02  0.798E-02
  -4.129  0.800E-02  0.800E-02
  -4.119  0.128E-01  0.128E-01
  -4.109  0.718E-02  0.718E-02
  -4.099  0.689E-02  0.689E-02
  -4.089  0.673E-02  0.673E-02
  -4.079  0.650E-02  0.650E-02
  -4.069  0.407E-02  0.407E-02
  -4.059  0.380E-02  0.380E-02
  -4.049  0.354E-02  0.354E-02
  -4.039  0.329E-02  0.329E-02
  -4.029  0.305E-02  0.305E-02
  -4.019  0.283E-02  0.283E-02
  -4.009  0.262E-02  0.262E-02
  -3.999  0.243E-02  0.243E-02
  -3.989  0.231E-02  0.231E-02
  -3.979  0.213E-02  0.213E-02
  -3.969  0.194E-02  0.194E-02
  -3.959  0.191E-02  0.191E-02
  -3.949  0.183E-02  0.183E-02
  -3.939  0.341E-02  0.341E-02
  -3.929  0.308E-02  0.308E-02
  -3.919  0.304E-02  0.304E-02
  -3.909  0.287E-02  0.287E-02
  -3.899  0.257E-02  0.257E-02
  -3.889  0.224E-02  0.224E-02
  -3.879  0.189E-02  0.189E-02
  -3.869  0.157E-02  0.157E-02
  -3.859  0.126E-02  0.126E-02
  -3.849  0.963E-03  0.963E-03
  -3.839  0.666E-03  0.666E-03
  -3.829  0.414E-03  0.414E-03
  -3.819  0.224E-03  0.224E-03
  -3.809  0.145E-03  0.145E-03
  -3.799  0.352E-03  0.352E-03
  -3.789  0.834E-03  0.834E-03
  -3.779  0.159E-02  0.159E-02
  -3.769  0.260E-02  0.260E-02
  -3.759  0.389E-02  0.389E-02
  -3.749  0.544E-02  0.544E-02
  -3.739  0.352E-02  0.352E-02
  -3.729  0.362E-02  0.362E-02
  -3.719  0.373E-02  0.373E-02
  -3.709  0.385E-02  0.385E-02
  -3.699  0.441E-02  0.441E-02
  -3.689  0.584E-02  0.584E-02
  -3.679  0.397E-02  0.397E-02
  -3.669  0.387E-02  0.387E-02
  -3.659  0.367E-02  0.367E-02
  -3.649  0.337E-02  0.337E-02
  -3.639  0.297E-02  0.297E-02
  -3.629  0.239E-02  0.239E-02
  -3.619  0.200E-02  0.200E-02
  -3.609  0.190E-02  0.190E-02
  -3.599  0.179E-02  0.179E-02
  -3.589  0.169E-02  0.169E-02
  -3.579  0.159E-02  0.159E-02
  -3.569  0.149E-02  0.149E-02
  -3.559  0.140E-02  0.140E-02
  -3.549  0.130E-02  0.130E-02
  -3.539  0.121E-02  0.121E-02
  -3.529  0.112E-02  0.112E-02
  -3.519  0.104E-02  0.104E-02
  -3.509  0.969E-03  0.969E-03
  -3.499  0.907E-03  0.907E-03
  -3.489  0.664E-03  0.664E-03
  -3.479  0.578E-03  0.578E-03
  -3.469  0.460E-03  0.460E-03
  -3.459  0.485E-03  0.485E-03
  -3.449  0.513E-03  0.513E-03
  -3.439  0.542E-03  0.542E-03
  -3.429  0.573E-03  0.573E-03
  -3.419  0.606E-03  0.606E-03
  -3.409  0.641E-03  0.641E-03
  -3.399  0.678E-03  0.678E-03
  -3.389  0.717E-03  0.717E-03
  -3.379  0.758E-03  0.758E-03
  -3.369  0.802E-03  0.802E-03
  -3.359  0.796E-03  0.796E-03
  -3.349  0.711E-03  0.711E-03
  -3.339  0.622E-03  0.622E-03
  -3.329  0.538E-03  0.538E-03
  -3.319  0.459E-03  0.459E-03
  -3.309  0.388E-03  0.388E-03
  -3.299  0.322E-03  0.322E-03
  -3.289  0.263E-03  0.263E-03
  -3.279  0.210E-03  0.210E-03
  -3.269  0.164E-03  0.164E-03
  -3.259  0.124E-03  0.124E-03
  -3.249  0.102E-03  0.102E-03
  -3.239  0.852E-04  0.852E-04
  -3.229  0.727E-04  0.727E-04
  -3.219  0.720E-04  0.720E-04
  -3.209  0.732E-04  0.732E-04
  -3.199  0.744E-04  0.744E-04
  -3.189  0.758E-04  0.758E-04
  -3.179  0.773E-04  0.773E-04
  -3.169  0.790E-04  0.790E-04
  -3.159  0.808E-04  0.808E-04
  -3.149  0.827E-04  0.827E-04
  -3.139  0.830E-04  0.830E-04
  -3.129  0.847E-04  0.847E-04
  -3.119  0.870E-04  0.870E-04
  -3.109  0.900E-04  0.900E-04
  -3.099  0.930E-04  0.930E-04
  -3.089  0.961E-04  0.961E-04
  -3.079  0.992E-04  0.992E-04
  -3.069  0.102E-03  0.102E-03
  -3.059  0.105E-03  0.105E-03
  -3.049  0.108E-03  0.108E-03
  -3.039  0.105E-03  0.105E-03
  -3.029  0.123E-03  0.123E-03
  -3.019  0.132E-03  0.132E-03
  -3.009  0.102E-03  0.102E-03
  -2.999  0.991E-04  0.991E-04
  -2.989  0.963E-04  0.963E-04
  -2.979  0.936E-04  0.936E-04
  -2.969  0.907E-04  0.907E-04
  -2.959  0.879E-04  0.879E-04
  -2.949  0.902E-04  0.902E-04
  -2.939  0.893E-04  0.893E-04
  -2.929  0.885E-04  0.885E-04
  -2.919  0.877E-04  0.877E-04
  -2.909  0.108E-03  0.108E-03
  -2.899  0.100E-03  0.100E-03
  -2.889  0.726E-04  0.726E-04
  -2.879  0.619E-04  0.619E-04
  -2.869  0.509E-04  0.509E-04
  -2.859  0.451E-04  0.451E-04
  -2.849  0.461E-04  0.461E-04
  -2.839  0.479E-04  0.479E-04
  -2.829  0.484E-04  0.484E-04
  -2.819  0.478E-04  0.478E-04
  -2.809  0.477E-04  0.477E-04
  -2.799  0.550E-04  0.550E-04
  -2.789  0.788E-04  0.788E-04
  -2.779  0.663E-04  0.663E-04
  -2.769  0.807E-04  0.807E-04
  -2.759  0.946E-04  0.946E-04
  -2.749  0.134E-03  0.134E-03
  -2.739  0.134E-03  0.134E-03
  -2.729  0.135E-03  0.135E-03
  -2.719  0.136E-03  0.136E-03
  -2.709  0.355E-03  0.355E-03
  -2.699  0.199E-03  0.199E-03
  -2.689  0.184E-03  0.184E-03
  -2.679  0.217E-03  0.217E-03
  -2.669  0.261E-03  0.261E-03
  -2.659  0.350E-03  0.350E-03
  -2.649  0.360E-03  0.360E-03
  -2.639  0.352E-03  0.352E-03
  -2.629  0.167E-03  0.167E-03
  -2.619  0.181E-03  0.181E-03
  -2.609  0.882E-04  0.882E-04
  -2.599  0.767E-04  0.767E-04
  -2.589  0.850E-04  0.850E-04
  -2.579  0.776E-04  0.776E-04
  -2.569  0.699E-04  0.699E-04
  -2.559  0.870E-04  0.870E-04
  -2.549  0.499E-04  0.499E-04
  -2.539  0.653E-04  0.653E-04
  -2.529  0.853E-04  0.853E-04
  -2.519  0.776E-04  0.776E-04
  -2.509  0.127E-03  0.127E-03
  -2.499  0.131E-03  0.131E-03
  -2.489  0.130E-03  0.130E-03
  -2.479  0.122E-03  0.122E-03
  -2.469  0.111E-03  0.111E-03
  -2.459  0.930E-04  0.930E-04
  -2.449  0.689E-04  0.689E-04
  -2.439  0.407E-04  0.407E-04
  -2.429  0.386E-04  0.386E-04
  -2.419  0.395E-04  0.395E-04
  -2.409  0.489E-04  0.489E-04
  -2.399  0.614E-04  0.614E-04
  -2.389  0.128E-03  0.128E-03
  -2.379  0.335E-03  0.335E-03
  -2.369  0.686E-04  0.686E-04
  -2.359  0.513E-04  0.513E-04
  -2.349  0.175E-03  0.175E-03
  -2.339  0.151E-03  0.151E-03
  -2.329  0.126E-03  0.126E-03
  -2.319  0.113E-03  0.113E-03
  -2.309  0.125E-03  0.125E-03
  -2.299  0.107E-03  0.107E-03
  -2.289  0.766E-04  0.766E-04
  -2.279  0.709E-04  0.709E-04
  -2.269  0.654E-04  0.654E-04
  -2.259  0.582E-04  0.582E-04
  -2.249  0.541E-04  0.541E-04
  -2.239  0.514E-04  0.514E-04
  -2.229  0.488E-04  0.488E-04
  -2.219  0.462E-04  0.462E-04
  -2.209  0.436E-04  0.436E-04
  -2.199  0.411E-04  0.411E-04
  -2.189  0.386E-04  0.386E-04
  -2.179  0.111E-03  0.111E-03
  -2.169  0.268E-04  0.268E-04
  -2.159  0.450E-04  0.450E-04
  -2.149  0.877E-04  0.877E-04
  -2.139  0.130E-03  0.130E-03
  -2.129  0.156E-03  0.156E-03
  -2.119  0.615E-04  0.615E-04
  -2.109  0.563E-04  0.563E-04
  -2.099  0.717E-04  0.717E-04
  -2.089  0.202E-04  0.202E-04
  -2.079  0.190E-04  0.190E-04
  -2.069  0.180E-04  0.180E-04
  -2.059  0.171E-04  0.171E-04
  -2.049  0.214E-04  0.214E-04
  -2.039  0.210E-04  0.210E-04
  -2.029  0.207E-04  0.207E-04
  -2.019  0.217E-04  0.217E-04
  -2.009  0.215E-04  0.215E-04
  -1.999  0.213E-04  0.213E-04
  -1.989  0.212E-04  0.212E-04
  -1.979  0.212E-04  0.212E-04
  -1.969  0.213E-04  0.213E-04
  -1.959  0.216E-04  0.216E-04
  -1.949  0.219E-04  0.219E-04
  -1.939  0.222E-04  0.222E-04
  -1.929  0.225E-04  0.225E-04
  -1.919  0.227E-04  0.227E-04
  -1.909  0.336E-04  0.336E-04
  -1.899  0.434E-04  0.434E-04
  -1.889  0.502E-04  0.502E-04
  -1.879  0.545E-04  0.545E-04
  -1.869  0.619E-04  0.619E-04
  -1.859  0.282E-03  0.282E-03
  -1.849  0.243E-03  0.243E-03
  -1.839  0.431E-03  0.431E-03
  -1.829  0.133E-03  0.133E-03
  -1.819  0.981E-04  0.981E-04
  -1.809  0.713E-04  0.713E-04
  -1.799  0.540E-04  0.540E-04
  -1.789  0.538E-04  0.538E-04
  -1.779  0.532E-04  0.532E-04
  -1.769  0.524E-04  0.524E-04
  -1.759  0.512E-04  0.512E-04
  -1.749  0.497E-04  0.497E-04
  -1.739  0.479E-04  0.479E-04
  -1.729  0.458E-04  0.458E-04
  -1.719  0.434E-04  0.434E-04
  -1.709  0.407E-04  0.407E-04
  -1.699  0.412E-04  0.412E-04
  -1.689  0.424E-04  0.424E-04
  -1.679  0.437E-04  0.437E-04
  -1.669  0.451E-04  0.451E-04
  -1.659  0.466E-04  0.466E-04
  -1.649  0.482E-04  0.482E-04
  -1.639  0.377E-04  0.377E-04
  -1.629  0.331E-04  0.331E-04
  -1.619  0.378E-04  0.378E-04
  -1.609  0.476E-04  0.476E-04
  -1.599  0.624E-04  0.624E-04
  -1.589  0.861E-04  0.861E-04
  -1.579  0.153E-03  0.153E-03
  -1.569  0.495E-04  0.495E-04
  -1.559  0.256E-04  0.256E-04
  -1.549  0.528E-04  0.528E-04
  -1.539  0.419E-04  0.419E-04
  -1.529  0.405E-04  0.405E-04
  -1.519  0.386E-04  0.386E-04
  -1.509  0.361E-04  0.361E-04
  -1.499  0.330E-04  0.330E-04
  -1.489  0.294E-04  0.294E-04
  -1.479  0.252E-04  0.252E-04
  -1.469  0.205E-04  0.205E-04
  -1.459  0.159E-04  0.159E-04
  -1.449  0.178E-04  0.178E-04
  -1.439  0.243E-04  0.243E-04
  -1.429  0.256E-04  0.256E-04
  -1.419  0.268E-04  0.268E-04
  -1.409  0.280E-04  0.280E-04
  -1.399  0.292E-04  0.292E-04
  -1.389  0.303E-04  0.303E-04
  -1.379  0.314E-04  0.314E-04
  -1.369  0.339E-04  0.339E-04
  -1.359  0.368E-04  0.368E-04
  -1.349  0.397E-04  0.397E-04
  -1.339  0.427E-04  0.427E-04
  -1.329  0.458E-04  0.458E-04
  -1.319  0.248E-04  0.248E-04
  -1.309  0.254E-04  0.254E-04
  -1.299  0.260E-04  0.260E-04
  -1.289  0.266E-04  0.266E-04
  -1.279  0.272E-04  0.272E-04
  -1.269  0.278E-04  0.278E-04
  -1.259  0.284E-04  0.284E-04
  -1.249  0.286E-04  0.286E-04
  -1.239  0.282E-04  0.282E-04
  -1.229  0.276E-04  0.276E-04
  -1.219  0.270E-04  0.270E-04
  -1.209  0.264E-04  0.264E-04
  -1.199  0.257E-04  0.257E-04
  -1.189  0.251E-04  0.251E-04
  -1.179  0.245E-04  0.245E-04
  -1.169  0.238E-04  0.238E-04
  -1.159  0.232E-04  0.232E-04
  -1.149  0.225E-04  0.225E-04
  -1.139  0.219E-04  0.219E-04
  -1.129  0.212E-04  0.212E-04
  -1.119  0.206E-04  0.206E-04
  -1.109  0.199E-04  0.199E-04
  -1.099  0.196E-04  0.196E-04
  -1.089  0.196E-04  0.196E-04
  -1.079  0.197E-04  0.197E-04
  -1.069  0.197E-04  0.197E-04
  -1.059  0.198E-04  0.198E-04
  -1.049  0.200E-04  0.200E-04
  -1.039  0.201E-04  0.201E-04
  -1.029  0.203E-04  0.203E-04
  -1.019  0.205E-04  0.205E-04
  -1.009  0.208E-04  0.208E-04
  -0.999  0.210E-04  0.210E-04
  -0.989  0.213E-04  0.213E-04
  -0.979  0.216E-04  0.216E-04
  -0.969  0.219E-04  0.219E-04
  -0.959  0.223E-04  0.223E-04
  -0.949  0.154E-04  0.154E-04
  -0.939  0.143E-04  0.143E-04
  -0.929  0.132E-04  0.132E-04
  -0.919  0.122E-04  0.122E-04
  -0.909  0.113E-04  0.113E-04
  -0.899  0.103E-04  0.103E-04
  -0.889  0.944E-05  0.944E-05
  -0.879  0.858E-05  0.858E-05
  -0.869  0.776E-05  0.776E-05
  -0.859  0.698E-05  0.698E-05
  -0.849  0.623E-05  0.623E-05
  -0.839  0.552E-05  0.552E-05
  -0.829  0.485E-05  0.485E-05
  -0.819  0.422E-05  0.422E-05
  -0.809  0.363E-05  0.363E-05
  -0.799  0.307E-05  0.307E-05
  -0.789  0.255E-05  0.255E-05
  -0.779  0.207E-05  0.207E-05
  -0.769  0.163E-05  0.163E-05
  -0.759  0.122E-05  0.122E-05
  -0.749  0.850E-06  0.850E-06
  -0.739  0.519E-06  0.519E-06
  -0.729  0.226E-06  0.226E-06
  -0.719  0.000E+00  0.000E+00
  -0.709  0.000E+00  0.000E+00
  -0.699  0.000E+00  0.000E+00
  -0.689  0.000E+00  0.000E+00
  -0.679  0.000E+00  0.000E+00
  -0.669  0.000E+00  0.000E+00
  -0.659  0.000E+00  0.000E+00
  -0.649  0.000E+00  0.000E+00
  -0.639  0.000E+00  0.000E+00
  -0.629  0.000E+00  0.000E+00
  -0.619  0.251E-07  0.251E-07
  -0.609  0.147E-06  0.147E-06
  -0.599  0.259E-06  0.259E-06
  -0.589  0.119E-05  0.119E-05
  -0.579  0.334E-05  0.334E-05
  -0.569  0.697E-05  0.697E-05
  -0.559  0.108E-04  0.108E-04
  -0.549  0.144E-04  0.144E-04
  -0.539  0.179E-04  0.179E-04
  -0.529  0.212E-04  0.212E-04
  -0.519  0.243E-04  0.243E-04
  -0.509  0.272E-04  0.272E-04
  -0.499  0.299E-04  0.299E-04
  -0.489  0.325E-04  0.325E-04
  -0.479  0.349E-04  0.349E-04
  -0.469  0.371E-04  0.371E-04
  -0.459  0.391E-04  0.391E-04
  -0.449  0.409E-04  0.409E-04
  -0.439  0.425E-04  0.425E-04
  -0.429  0.440E-04  0.440E-04
  -0.419  0.475E-04  0.475E-04
  -0.409  0.497E-04  0.497E-04
  -0.399  0.570E-04  0.570E-04
  -0.389  0.599E-04  0.599E-04
  -0.379  0.625E-04  0.625E-04
  -0.369  0.649E-04  0.649E-04
  -0.359  0.693E-04  0.693E-04
  -0.349  0.827E-04  0.827E-04
  -0.339  0.104E-03  0.104E-03
  -0.329  0.132E-03  0.132E-03
  -0.319  0.107E-03  0.107E-03
  -0.309  0.120E-03  0.120E-03
  -0.299  0.134E-03  0.134E-03
  -0.289  0.117E-03  0.117E-03
  -0.279  0.637E-04  0.637E-04
  -0.269  0.636E-04  0.636E-04
  -0.259  0.131E-03  0.131E-03
  -0.249  0.144E-03  0.144E-03
  -0.239  0.161E-03  0.161E-03
  -0.229  0.312E-03  0.312E-03
  -0.219  0.443E-04  0.443E-04
  -0.209  0.448E-04  0.448E-04
  -0.199  0.452E-04  0.452E-04
  -0.189  0.455E-04  0.455E-04
  -0.179  0.458E-04  0.458E-04
  -0.169  0.461E-04  0.461E-04
  -0.159  0.464E-04  0.464E-04
  -0.149  0.465E-04  0.465E-04
  -0.139  0.467E-04  0.467E-04
  -0.129  0.468E-04  0.468E-04
  -0.119  0.468E-04  0.468E-04
  -0.109  0.149E-03  0.149E-03
  -0.099  0.307E-03  0.307E-03
  -0.089  0.560E-03  0.560E-03
  -0.079  0.102E-02  0.102E-02
  -0.069  0.276E-02  0.276E-02
  -0.059  0.525E-02  0.525E-02
  -0.049  0.158E-02  0.158E-02
  -0.039  0.135E-02  0.135E-02
  -0.029  0.127E-02  0.127E-02
  -0.019  0.147E-02  0.147E-02
  -0.009  0.121E-02  0.121E-02
   0.001  0.936E-03  0.936E-03
   0.011  0.746E-03  0.746E-03
   0.021  0.601E-03  0.601E-03
   0.031  0.463E-03  0.463E-03
   0.041  0.380E-03  0.380E-03
   0.051  0.354E-03  0.354E-03
   0.061  0.398E-03  0.398E-03
   0.071  0.234E-03  0.234E-03
   0.081  0.561E-04  0.561E-04
   0.091  0.467E-04  0.467E-04
   0.101  0.493E-04  0.493E-04
   0.111  0.519E-04  0.519E-04
   0.121  0.545E-04  0.545E-04
   0.131  0.571E-04  0.571E-04
   0.141  0.597E-04  0.597E-04
   0.151  0.623E-04  0.623E-04
   0.161  0.650E-04  0.650E-04
   0.171  0.676E-04  0.676E-04
   0.181  0.703E-04  0.703E-04
   0.191  0.730E-04  0.730E-04
   0.201  0.757E-04  0.757E-04
   0.211  0.784E-04  0.784E-04
   0.221  0.811E-04  0.811E-04
   0.231  0.838E-04  0.838E-04
   0.241  0.865E-04  0.865E-04
   0.251  0.893E-04  0.893E-04
   0.261  0.920E-04  0.920E-04
   0.271  0.948E-04  0.948E-04
   0.281  0.976E-04  0.976E-04
   0.291  0.100E-03  0.100E-03
   0.301  0.103E-03  0.103E-03
   0.311  0.106E-03  0.106E-03
   0.321  0.109E-03  0.109E-03
   0.331  0.112E-03  0.112E-03
   0.341  0.114E-03  0.114E-03
   0.351  0.117E-03  0.117E-03
   0.361  0.120E-03  0.120E-03
   0.371  0.123E-03  0.123E-03
   0.381  0.246E-03  0.246E-03
   0.391  0.715E-03  0.715E-03
   0.401  0.107E-02  0.107E-02
   0.411  0.416E-03  0.416E-03
   0.421  0.455E-03  0.455E-03
   0.431  0.496E-03  0.496E-03
   0.441  0.541E-03  0.541E-03
   0.451  0.593E-03  0.593E-03
   0.461  0.720E-03  0.720E-03
   0.471  0.132E-02  0.132E-02
   0.481  0.191E-02  0.191E-02
   0.491  0.240E-02  0.240E-02
   0.501  0.280E-02  0.280E-02
   0.511  0.309E-02  0.309E-02
   0.521  0.231E-02  0.231E-02
   0.531  0.238E-02  0.238E-02
   0.541  0.253E-02  0.253E-02
   0.551  0.245E-02  0.245E-02
   0.561  0.200E-02  0.200E-02
   0.571  0.159E-02  0.159E-02
   0.581  0.172E-02  0.172E-02
   0.591  0.185E-02  0.185E-02
   0.601  0.206E-02  0.206E-02
   0.611  0.224E-02  0.224E-02
   0.621  0.227E-02  0.227E-02
   0.631  0.199E-02  0.199E-02
   0.641  0.203E-02  0.203E-02
   0.651  0.211E-02  0.211E-02
   0.661  0.206E-02  0.206E-02
   0.671  0.202E-02  0.202E-02
   0.681  0.198E-02  0.198E-02
   0.691  0.196E-02  0.196E-02
   0.701  0.195E-02  0.195E-02
   0.711  0.195E-02  0.195E-02
   0.721  0.196E-02  0.196E-02
   0.731  0.198E-02  0.198E-02
   0.741  0.201E-02  0.201E-02
   0.751  0.245E-02  0.245E-02
   0.761  0.238E-02  0.238E-02
   0.771  0.238E-02  0.238E-02
   0.781  0.246E-02  0.246E-02
   0.791  0.258E-02  0.258E-02
   0.801  0.258E-02  0.258E-02
   0.811  0.259E-02  0.259E-02
   0.821  0.267E-02  0.267E-02
   0.831  0.422E-02  0.422E-02
   0.841  0.363E-02  0.363E-02
   0.851  0.316E-02  0.316E-02
   0.861  0.280E-02  0.280E-02
   0.871  0.290E-02  0.290E-02
   0.881  0.363E-02  0.363E-02
   0.891  0.447E-02  0.447E-02
   0.901  0.322E-02  0.322E-02
   0.911  0.429E-02  0.429E-02
   0.921  0.510E-02  0.510E-02
   0.931  0.560E-02  0.560E-02
   0.941  0.583E-02  0.583E-02
   0.951  0.599E-02  0.599E-02
   0.961  0.609E-02  0.609E-02
   0.971  0.477E-02  0.477E-02
   0.981  0.477E-02  0.477E-02
   0.991  0.433E-02  0.433E-02
   1.001  0.516E-02  0.516E-02
   1.011  0.616E-02  0.616E-02
   1.021  0.735E-02  0.735E-02
   1.031  0.153E-01  0.153E-01
   1.041  0.591E-02  0.591E-02
   1.051  0.140E-01  0.140E-01
   1.061  0.124E-01  0.124E-01
   1.071  0.111E-01  0.111E-01
   1.081  0.101E-01  0.101E-01
   1.091  0.939E-02  0.939E-02
   1.101  0.858E-02  0.858E-02
   1.111  0.323E-01  0.323E-01
   1.121  0.878E-02  0.878E-02
   1.131  0.845E-02  0.845E-02
   1.141  0.976E-02  0.976E-02
   1.151  0.113E-01  0.113E-01
   1.161  0.129E-01  0.129E-01
   1.171  0.153E-01  0.153E-01
   1.181  0.175E-01  0.175E-01
   1.191  0.181E-01  0.181E-01
   1.201  0.193E-01  0.193E-01
   1.211  0.730E-01  0.730E-01
   1.221  0.125E+00  0.125E+00
   1.231  0.174E+00  0.174E+00
   1.241  0.129E+00  0.129E+00
   1.251  0.138E+00  0.138E+00
   1.261  0.152E+00  0.152E+00
   1.271  0.173E+00  0.173E+00
   1.281  0.202E+00  0.202E+00
   1.291  0.146E+00  0.146E+00
   1.301  0.166E+00  0.166E+00
   1.311  0.160E+00  0.160E+00
   1.321  0.154E+00  0.154E+00
   1.331  0.886E-01  0.886E-01
   1.341  0.756E-01  0.756E-01
   1.351  0.687E-01  0.687E-01
   1.361  0.589E-01  0.589E-01
   1.371  0.476E-01  0.476E-01
   1.381  0.375E-01  0.375E-01
   1.391  0.290E-01  0.290E-01
   1.401  0.215E-01  0.215E-01
   1.411  0.150E-01  0.150E-01
   1.421  0.940E-02  0.940E-02
   1.431  0.713E-02  0.713E-02
   1.441  0.519E-02  0.519E-02
   1.451  0.355E-02  0.355E-02
   1.461  0.222E-02  0.222E-02
   1.471  0.170E-02  0.170E-02
   1.481  0.166E-02  0.166E-02
   1.491  0.175E-02  0.175E-02
   1.501  0.698E-02  0.698E-02
   1.511  0.968E-02  0.968E-02
   1.521  0.114E-01  0.114E-01
   1.531  0.121E-01  0.121E-01
   1.541  0.639E-02  0.639E-02
   1.551  0.634E-02  0.634E-02
   1.561  0.109E-01  0.109E-01
   1.571  0.101E-01  0.101E-01
   1.581  0.894E-02  0.894E-02
   1.591  0.950E-02  0.950E-02
   1.601  0.106E-01  0.106E-01
   1.611  0.117E-01  0.117E-01
   1.621  0.111E-01  0.111E-01
   1.631  0.119E-01  0.119E-01
   1.641  0.125E-01  0.125E-01
   1.651  0.130E-01  0.130E-01
   1.661  0.136E-01  0.136E-01
   1.671  0.146E-01  0.146E-01
   1.681  0.161E-01  0.161E-01
   1.691  0.181E-01  0.181E-01
   1.701  0.203E-01  0.203E-01
   1.711  0.225E-01  0.225E-01
   1.721  0.247E-01  0.247E-01
   1.731  0.253E-01  0.253E-01
   1.741  0.279E-01  0.279E-01
   1.751  0.299E-01  0.299E-01
   1.761  0.313E-01  0.313E-01
   1.771  0.321E-01  0.321E-01
   1.781  0.878E-01  0.878E-01
   1.791  0.701E-01  0.701E-01
   1.801  0.543E-01  0.543E-01
   1.811  0.405E-01  0.405E-01
   1.821  0.286E-01  0.286E-01
   1.831  0.186E-01  0.186E-01
   1.841  0.146E-01  0.146E-01
   1.851  0.106E-01  0.106E-01
   1.861  0.702E-02  0.702E-02
   1.871  0.557E-02  0.557E-02
   1.881  0.416E-02  0.416E-02
   1.891  0.281E-02  0.281E-02
   1.901  0.150E-02  0.150E-02
   1.911  0.232E-03  0.232E-03
   1.921  0.000E+00  0.000E+00
