# E (eV)   ldos(E)   pdos(E)   
 -15.919  0.000E+00  0.000E+00
 -15.909  0.831E-01  0.831E-01
 -15.899  0.165E+00  0.165E+00
 -15.889  0.120E+00  0.120E+00
 -15.879  0.126E+00  0.126E+00
 -15.869  0.131E+00  0.131E+00
 -15.859  0.137E+00  0.137E+00
 -15.849  0.142E+00  0.142E+00
 -15.839  0.147E+00  0.147E+00
 -15.829  0.148E+00  0.148E+00
 -15.819  0.139E+00  0.139E+00
 -15.809  0.130E+00  0.130E+00
 -15.799  0.124E+00  0.124E+00
 -15.789  0.125E+00  0.125E+00
 -15.779  0.126E+00  0.126E+00
 -15.769  0.126E+00  0.126E+00
 -15.759  0.125E+00  0.125E+00
 -15.749  0.124E+00  0.124E+00
 -15.739  0.122E+00  0.122E+00
 -15.729  0.120E+00  0.120E+00
 -15.719  0.117E+00  0.117E+00
 -15.709  0.229E+00  0.229E+00
 -15.699  0.159E+00  0.159E+00
 -15.689  0.104E+00  0.104E+00
 -15.679  0.618E-01  0.618E-01
 -15.669  0.349E-01  0.349E-01
 -15.659  0.261E-01  0.261E-01
 -15.649  0.186E-01  0.186E-01
 -15.639  0.209E-01  0.209E-01
 -15.629  0.355E-01  0.355E-01
 -15.619  0.499E-01  0.499E-01
 -15.609  0.640E-01  0.640E-01
 -15.599  0.777E-01  0.777E-01
 -15.589  0.910E-01  0.910E-01
 -15.579  0.103E+00  0.103E+00
 -15.569  0.113E+00  0.113E+00
 -15.559  0.137E+00  0.137E+00
 -15.549  0.339E+00  0.339E+00
 -15.539  0.114E+00  0.114E+00
 -15.529  0.118E+00  0.118E+00
 -15.519  0.121E+00  0.121E+00
 -15.509  0.124E+00  0.124E+00
 -15.499  0.126E+00  0.126E+00
 -15.489  0.127E+00  0.127E+00
 -15.479  0.128E+00  0.128E+00
 -15.469  0.129E+00  0.129E+00
 -15.459  0.129E+00  0.129E+00
 -15.449  0.128E+00  0.128E+00
 -15.439  0.127E+00  0.127E+00
 -15.429  0.125E+00  0.125E+00
 -15.419  0.123E+00  0.123E+00
 -15.409  0.121E+00  0.121E+00
 -15.399  0.118E+00  0.118E+00
 -15.389  0.114E+00  0.114E+00
 -15.379  0.110E+00  0.110E+00
 -15.369  0.105E+00  0.105E+00
 -15.359  0.154E+00  0.154E+00
 -15.349  0.150E+00  0.150E+00
 -15.339  0.144E+00  0.144E+00
 -15.329  0.137E+00  0.137E+00
 -15.319  0.128E+00  0.128E+00
 -15.309  0.119E+00  0.119E+00
 -15.299  0.108E+00  0.108E+00
 -15.289  0.105E+00  0.105E+00
 -15.279  0.104E+00  0.104E+00
 -15.269  0.102E+00  0.102E+00
 -15.259  0.100E+00  0.100E+00
 -15.249  0.983E-01  0.983E-01
 -15.239  0.964E-01  0.964E-01
 -15.229  0.945E-01  0.945E-01
 -15.219  0.926E-01  0.926E-01
 -15.209  0.906E-01  0.906E-01
 -15.199  0.689E-01  0.689E-01
 -15.189  0.645E-01  0.645E-01
 -15.179  0.599E-01  0.599E-01
 -15.169  0.551E-01  0.551E-01
 -15.159  0.502E-01  0.502E-01
 -15.149  0.450E-01  0.450E-01
 -15.139  0.399E-01  0.399E-01
 -15.129  0.637E-01  0.637E-01
 -15.119  0.873E-01  0.873E-01
 -15.109  0.108E+00  0.108E+00
 -15.099  0.112E+00  0.112E+00
 -15.089  0.116E+00  0.116E+00
 -15.079  0.119E+00  0.119E+00
 -15.069  0.123E+00  0.123E+00
 -15.059  0.126E+00  0.126E+00
 -15.049  0.130E+00  0.130E+00
 -15.039  0.133E+00  0.133E+00
 -15.029  0.136E+00  0.136E+00
 -15.019  0.254E+00  0.254E+00
 -15.009  0.230E+00  0.230E+00
 -14.999  0.208E+00  0.208E+00
 -14.989  0.188E+00  0.188E+00
 -14.979  0.169E+00  0.169E+00
 -14.969  0.151E+00  0.151E+00
 -14.959  0.135E+00  0.135E+00
 -14.949  0.121E+00  0.121E+00
 -14.939  0.108E+00  0.108E+00
 -14.929  0.962E-01  0.962E-01
 -14.919  0.862E-01  0.862E-01
 -14.909  0.779E-01  0.779E-01
 -14.899  0.712E-01  0.712E-01
 -14.889  0.650E-01  0.650E-01
 -14.879  0.591E-01  0.591E-01
 -14.869  0.536E-01  0.536E-01
 -14.859  0.137E+00  0.137E+00
 -14.849  0.105E+00  0.105E+00
 -14.839  0.789E-01  0.789E-01
 -14.829  0.591E-01  0.591E-01
 -14.819  0.458E-01  0.458E-01
 -14.809  0.388E-01  0.388E-01
 -14.799  0.503E-01  0.503E-01
 -14.789  0.642E-01  0.642E-01
 -14.779  0.764E-01  0.764E-01
 -14.769  0.869E-01  0.869E-01
 -14.759  0.957E-01  0.957E-01
 -14.749  0.103E+00  0.103E+00
 -14.739  0.108E+00  0.108E+00
 -14.729  0.112E+00  0.112E+00
 -14.719  0.114E+00  0.114E+00
 -14.709  0.114E+00  0.114E+00
 -14.699  0.112E+00  0.112E+00
 -14.689  0.905E-01  0.905E-01
 -14.679  0.906E-01  0.906E-01
 -14.669  0.907E-01  0.907E-01
 -14.659  0.906E-01  0.906E-01
 -14.649  0.904E-01  0.904E-01
 -14.639  0.900E-01  0.900E-01
 -14.629  0.896E-01  0.896E-01
 -14.619  0.890E-01  0.890E-01
 -14.609  0.882E-01  0.882E-01
 -14.599  0.873E-01  0.873E-01
 -14.589  0.864E-01  0.864E-01
 -14.579  0.852E-01  0.852E-01
 -14.569  0.840E-01  0.840E-01
 -14.559  0.874E-01  0.874E-01
 -14.549  0.158E+00  0.158E+00
 -14.539  0.316E+00  0.316E+00
 -14.529  0.870E-01  0.870E-01
 -14.519  0.872E-01  0.872E-01
 -14.509  0.874E-01  0.874E-01
 -14.499  0.878E-01  0.878E-01
 -14.489  0.881E-01  0.881E-01
 -14.479  0.885E-01  0.885E-01
 -14.469  0.890E-01  0.890E-01
 -14.459  0.896E-01  0.896E-01
 -14.449  0.917E-01  0.917E-01
 -14.439  0.942E-01  0.942E-01
 -14.429  0.963E-01  0.963E-01
 -14.419  0.980E-01  0.980E-01
 -14.409  0.995E-01  0.995E-01
 -14.399  0.101E+00  0.101E+00
 -14.389  0.101E+00  0.101E+00
 -14.379  0.102E+00  0.102E+00
 -14.369  0.102E+00  0.102E+00
 -14.359  0.102E+00  0.102E+00
 -14.349  0.101E+00  0.101E+00
 -14.339  0.100E+00  0.100E+00
 -14.329  0.993E-01  0.993E-01
 -14.319  0.982E-01  0.982E-01
 -14.309  0.980E-01  0.980E-01
 -14.299  0.991E-01  0.991E-01
 -14.289  0.100E+00  0.100E+00
 -14.279  0.101E+00  0.101E+00
 -14.269  0.102E+00  0.102E+00
 -14.259  0.103E+00  0.103E+00
 -14.249  0.104E+00  0.104E+00
 -14.239  0.104E+00  0.104E+00
 -14.229  0.105E+00  0.105E+00
 -14.219  0.124E+00  0.124E+00
 -14.209  0.948E-01  0.948E-01
 -14.199  0.722E-01  0.722E-01
 -14.189  0.562E-01  0.562E-01
 -14.179  0.467E-01  0.467E-01
 -14.169  0.438E-01  0.438E-01
 -14.159  0.580E-01  0.580E-01
 -14.149  0.910E-01  0.910E-01
 -14.139  0.984E-01  0.984E-01
 -14.129  0.950E-01  0.950E-01
 -14.119  0.917E-01  0.917E-01
 -14.109  0.885E-01  0.885E-01
 -14.099  0.854E-01  0.854E-01
 -14.089  0.824E-01  0.824E-01
 -14.079  0.796E-01  0.796E-01
 -14.069  0.523E-01  0.523E-01
 -14.059  0.535E-01  0.535E-01
 -14.049  0.545E-01  0.545E-01
 -14.039  0.551E-01  0.551E-01
 -14.029  0.555E-01  0.555E-01
 -14.019  0.555E-01  0.555E-01
 -14.009  0.552E-01  0.552E-01
 -13.999  0.547E-01  0.547E-01
 -13.989  0.538E-01  0.538E-01
 -13.979  0.526E-01  0.526E-01
 -13.969  0.512E-01  0.512E-01
 -13.959  0.494E-01  0.494E-01
 -13.949  0.473E-01  0.473E-01
 -13.939  0.449E-01  0.449E-01
 -13.929  0.423E-01  0.423E-01
 -13.919  0.114E+00  0.114E+00
 -13.909  0.107E+00  0.107E+00
 -13.899  0.998E-01  0.998E-01
 -13.889  0.914E-01  0.914E-01
 -13.879  0.821E-01  0.821E-01
 -13.869  0.718E-01  0.718E-01
 -13.859  0.455E-01  0.455E-01
 -13.849  0.262E-01  0.262E-01
 -13.839  0.290E-01  0.290E-01
 -13.829  0.499E-01  0.499E-01
 -13.819  0.690E-01  0.690E-01
 -13.809  0.861E-01  0.861E-01
 -13.799  0.101E+00  0.101E+00
 -13.789  0.115E+00  0.115E+00
 -13.779  0.127E+00  0.127E+00
 -13.769  0.292E+00  0.292E+00
 -13.759  0.169E+00  0.169E+00
 -13.749  0.113E+00  0.113E+00
 -13.739  0.112E+00  0.112E+00
 -13.729  0.108E+00  0.108E+00
 -13.719  0.101E+00  0.101E+00
 -13.709  0.899E-01  0.899E-01
 -13.699  0.761E-01  0.761E-01
 -13.689  0.591E-01  0.591E-01
 -13.679  0.389E-01  0.389E-01
 -13.669  0.382E-01  0.382E-01
 -13.659  0.383E-01  0.383E-01
 -13.649  0.385E-01  0.385E-01
 -13.639  0.432E-01  0.432E-01
 -13.629  0.476E-01  0.476E-01
 -13.619  0.518E-01  0.518E-01
 -13.609  0.558E-01  0.558E-01
 -13.599  0.596E-01  0.596E-01
 -13.589  0.630E-01  0.630E-01
 -13.579  0.663E-01  0.663E-01
 -13.569  0.693E-01  0.693E-01
 -13.559  0.721E-01  0.721E-01
 -13.549  0.746E-01  0.746E-01
 -13.539  0.769E-01  0.769E-01
 -13.529  0.790E-01  0.790E-01
 -13.519  0.808E-01  0.808E-01
 -13.509  0.627E-01  0.627E-01
 -13.499  0.593E-01  0.593E-01
 -13.489  0.564E-01  0.564E-01
 -13.479  0.168E+00  0.168E+00
 -13.469  0.480E-01  0.480E-01
 -13.459  0.405E-01  0.405E-01
 -13.449  0.397E-01  0.397E-01
 -13.439  0.392E-01  0.392E-01
 -13.429  0.391E-01  0.391E-01
 -13.419  0.391E-01  0.391E-01
 -13.409  0.391E-01  0.391E-01
 -13.399  0.390E-01  0.390E-01
 -13.389  0.390E-01  0.390E-01
 -13.379  0.390E-01  0.390E-01
 -13.369  0.386E-01  0.386E-01
 -13.359  0.379E-01  0.379E-01
 -13.349  0.372E-01  0.372E-01
 -13.339  0.366E-01  0.366E-01
 -13.329  0.370E-01  0.370E-01
 -13.319  0.373E-01  0.373E-01
 -13.309  0.376E-01  0.376E-01
 -13.299  0.379E-01  0.379E-01
 -13.289  0.382E-01  0.382E-01
 -13.279  0.385E-01  0.385E-01
 -13.269  0.521E-01  0.521E-01
 -13.259  0.522E-01  0.522E-01
 -13.249  0.522E-01  0.522E-01
 -13.239  0.519E-01  0.519E-01
 -13.229  0.515E-01  0.515E-01
 -13.219  0.510E-01  0.510E-01
 -13.209  0.503E-01  0.503E-01
 -13.199  0.494E-01  0.494E-01
 -13.189  0.484E-01  0.484E-01
 -13.179  0.472E-01  0.472E-01
 -13.169  0.459E-01  0.459E-01
 -13.159  0.446E-01  0.446E-01
 -13.149  0.438E-01  0.438E-01
 -13.139  0.544E-01  0.544E-01
 -13.129  0.612E-01  0.612E-01
 -13.119  0.636E-01  0.636E-01
 -13.109  0.549E-01  0.549E-01
 -13.099  0.530E-01  0.530E-01
 -13.089  0.441E-01  0.441E-01
 -13.079  0.289E-01  0.289E-01
 -13.069  0.255E-01  0.255E-01
 -13.059  0.231E-01  0.231E-01
 -13.049  0.217E-01  0.217E-01
 -13.039  0.213E-01  0.213E-01
 -13.029  0.212E-01  0.212E-01
 -13.019  0.198E-13  0.198E-13
 -13.009  0.113E-06  0.113E-06
 -12.999  0.367E-05  0.367E-05
 -12.989  0.246E-02  0.246E-02
 -12.979  0.132E-01  0.132E-01
 -12.969  0.225E-01  0.225E-01
 -12.959  0.305E-01  0.305E-01
 -12.949  0.379E-01  0.379E-01
 -12.939  0.458E-01  0.458E-01
 -12.929  0.530E-01  0.530E-01
 -12.919  0.596E-01  0.596E-01
 -12.909  0.655E-01  0.655E-01
 -12.899  0.103E+00  0.103E+00
 -12.889  0.762E-01  0.762E-01
 -12.879  0.756E-01  0.756E-01
 -12.869  0.746E-01  0.746E-01
 -12.859  0.732E-01  0.732E-01
 -12.849  0.714E-01  0.714E-01
 -12.839  0.693E-01  0.693E-01
 -12.829  0.671E-01  0.671E-01
 -12.819  0.645E-01  0.645E-01
 -12.809  0.615E-01  0.615E-01
 -12.799  0.575E-01  0.575E-01
 -12.789  0.535E-01  0.535E-01
 -12.779  0.742E-01  0.742E-01
 -12.769  0.917E-01  0.917E-01
 -12.759  0.345E-01  0.345E-01
 -12.749  0.322E-01  0.322E-01
 -12.739  0.300E-01  0.300E-01
 -12.729  0.277E-01  0.277E-01
 -12.719  0.254E-01  0.254E-01
 -12.709  0.231E-01  0.231E-01
 -12.699  0.208E-01  0.208E-01
 -12.689  0.185E-01  0.185E-01
 -12.679  0.162E-01  0.162E-01
 -12.669  0.139E-01  0.139E-01
 -12.659  0.116E-01  0.116E-01
 -12.649  0.945E-02  0.945E-02
 -12.639  0.963E-02  0.963E-02
 -12.629  0.101E-01  0.101E-01
 -12.619  0.111E-01  0.111E-01
 -12.609  0.129E-01  0.129E-01
 -12.599  0.152E-01  0.152E-01
 -12.589  0.183E-01  0.183E-01
 -12.579  0.219E-01  0.219E-01
 -12.569  0.118E-01  0.118E-01
 -12.559  0.116E-01  0.116E-01
 -12.549  0.111E-01  0.111E-01
 -12.539  0.104E-01  0.104E-01
 -12.529  0.943E-02  0.943E-02
 -12.519  0.112E-01  0.112E-01
 -12.509  0.116E-01  0.116E-01
 -12.499  0.112E-01  0.112E-01
 -12.489  0.108E-01  0.108E-01
 -12.479  0.104E-01  0.104E-01
 -12.469  0.100E-01  0.100E-01
 -12.459  0.960E-02  0.960E-02
 -12.449  0.920E-02  0.920E-02
 -12.439  0.881E-02  0.881E-02
 -12.429  0.841E-02  0.841E-02
 -12.419  0.760E-02  0.760E-02
 -12.409  0.678E-02  0.678E-02
 -12.399  0.597E-02  0.597E-02
 -12.389  0.516E-02  0.516E-02
 -12.379  0.436E-02  0.436E-02
 -12.369  0.356E-02  0.356E-02
 -12.359  0.276E-02  0.276E-02
 -12.349  0.317E-02  0.317E-02
 -12.339  0.210E-02  0.210E-02
 -12.329  0.125E-02  0.125E-02
 -12.319  0.623E-03  0.623E-03
 -12.309  0.210E-03  0.210E-03
 -12.299  0.164E-04  0.164E-04
 -12.289  0.000E+00  0.000E+00
 -12.279  0.000E+00  0.000E+00
 -12.269  0.000E+00  0.000E+00
 -12.259  0.000E+00  0.000E+00
 -12.249  0.000E+00  0.000E+00
 -12.239  0.000E+00  0.000E+00
 -12.229  0.000E+00  0.000E+00
 -12.219  0.000E+00  0.000E+00
 -12.209  0.000E+00  0.000E+00
 -12.199  0.000E+00  0.000E+00
 -12.189  0.000E+00  0.000E+00
 -12.179  0.000E+00  0.000E+00
 -12.169  0.000E+00  0.000E+00
 -12.159  0.000E+00  0.000E+00
 -12.149  0.000E+00  0.000E+00
 -12.139  0.000E+00  0.000E+00
 -12.129  0.000E+00  0.000E+00
 -12.119  0.000E+00  0.000E+00
 -12.109  0.000E+00  0.000E+00
 -12.099  0.000E+00  0.000E+00
 -12.089  0.000E+00  0.000E+00
 -12.079  0.000E+00  0.000E+00
 -12.069  0.000E+00  0.000E+00
 -12.059  0.000E+00  0.000E+00
 -12.049  0.000E+00  0.000E+00
 -12.039  0.000E+00  0.000E+00
 -12.029  0.000E+00  0.000E+00
 -12.019  0.000E+00  0.000E+00
 -12.009  0.000E+00  0.000E+00
 -11.999  0.774E-04  0.774E-04
 -11.989  0.224E-03  0.224E-03
 -11.979  0.358E-03  0.358E-03
 -11.969  0.223E-03  0.223E-03
 -11.959  0.225E-03  0.225E-03
 -11.949  0.227E-03  0.227E-03
 -11.939  0.228E-03  0.228E-03
 -11.929  0.228E-03  0.228E-03
 -11.919  0.228E-03  0.228E-03
 -11.909  0.226E-03  0.226E-03
 -11.899  0.212E-03  0.212E-03
 -11.889  0.193E-03  0.193E-03
 -11.879  0.176E-03  0.176E-03
 -11.869  0.166E-03  0.166E-03
 -11.859  0.163E-03  0.163E-03
 -11.849  0.159E-03  0.159E-03
 -11.839  0.155E-03  0.155E-03
 -11.829  0.150E-03  0.150E-03
 -11.819  0.144E-03  0.144E-03
 -11.809  0.138E-03  0.138E-03
 -11.799  0.132E-03  0.132E-03
 -11.789  0.125E-03  0.125E-03
 -11.779  0.117E-03  0.117E-03
 -11.769  0.219E-03  0.219E-03
 -11.759  0.159E-03  0.159E-03
 -11.749  0.110E-03  0.110E-03
 -11.739  0.726E-04  0.726E-04
 -11.729  0.463E-04  0.463E-04
 -11.719  0.319E-04  0.319E-04
 -11.709  0.251E-04  0.251E-04
 -11.699  0.208E-04  0.208E-04
 -11.689  0.302E-04  0.302E-04
 -11.679  0.391E-04  0.391E-04
 -11.669  0.473E-04  0.473E-04
 -11.659  0.551E-04  0.551E-04
 -11.649  0.622E-04  0.622E-04
 -11.639  0.688E-04  0.688E-04
 -11.629  0.748E-04  0.748E-04
 -11.619  0.797E-04  0.797E-04
 -11.609  0.886E-04  0.886E-04
 -11.599  0.138E-03  0.138E-03
 -11.589  0.240E-03  0.240E-03
 -11.579  0.760E-04  0.760E-04
 -11.569  0.767E-04  0.767E-04
 -11.559  0.772E-04  0.772E-04
 -11.549  0.774E-04  0.774E-04
 -11.539  0.775E-04  0.775E-04
 -11.529  0.775E-04  0.775E-04
 -11.519  0.772E-04  0.772E-04
 -11.509  0.768E-04  0.768E-04
 -11.499  0.761E-04  0.761E-04
 -11.489  0.753E-04  0.753E-04
 -11.479  0.744E-04  0.744E-04
 -11.469  0.733E-04  0.733E-04
 -11.459  0.719E-04  0.719E-04
 -11.449  0.703E-04  0.703E-04
 -11.439  0.683E-04  0.683E-04
 -11.429  0.662E-04  0.662E-04
 -11.419  0.637E-04  0.637E-04
 -11.409  0.610E-04  0.610E-04
 -11.399  0.580E-04  0.580E-04
 -11.389  0.547E-04  0.547E-04
 -11.379  0.869E-04  0.869E-04
 -11.369  0.860E-04  0.860E-04
 -11.359  0.839E-04  0.839E-04
 -11.349  0.807E-04  0.807E-04
 -11.339  0.763E-04  0.763E-04
 -11.329  0.708E-04  0.708E-04
 -11.319  0.642E-04  0.642E-04
 -11.309  0.624E-04  0.624E-04
 -11.299  0.620E-04  0.620E-04
 -11.289  0.615E-04  0.615E-04
 -11.279  0.611E-04  0.611E-04
 -11.269  0.608E-04  0.608E-04
 -11.259  0.605E-04  0.605E-04
 -11.249  0.602E-04  0.602E-04
 -11.239  0.599E-04  0.599E-04
 -11.229  0.597E-04  0.597E-04
 -11.219  0.594E-04  0.594E-04
 -11.209  0.593E-04  0.593E-04
 -11.199  0.429E-04  0.429E-04
 -11.189  0.405E-04  0.405E-04
 -11.179  0.379E-04  0.379E-04
 -11.169  0.352E-04  0.352E-04
 -11.159  0.324E-04  0.324E-04
 -11.149  0.295E-04  0.295E-04
 -11.139  0.266E-04  0.266E-04
 -11.129  0.406E-04  0.406E-04
 -11.119  0.596E-04  0.596E-04
 -11.109  0.794E-04  0.794E-04
 -11.099  0.877E-04  0.877E-04
 -11.089  0.931E-04  0.931E-04
 -11.079  0.986E-04  0.986E-04
 -11.069  0.104E-03  0.104E-03
 -11.059  0.110E-03  0.110E-03
 -11.049  0.115E-03  0.115E-03
 -11.039  0.121E-03  0.121E-03
 -11.029  0.127E-03  0.127E-03
 -11.019  0.133E-03  0.133E-03
 -11.009  0.258E-03  0.258E-03
 -10.999  0.236E-03  0.236E-03
 -10.989  0.216E-03  0.216E-03
 -10.979  0.198E-03  0.198E-03
 -10.969  0.180E-03  0.180E-03
 -10.959  0.164E-03  0.164E-03
 -10.949  0.150E-03  0.150E-03
 -10.939  0.136E-03  0.136E-03
 -10.929  0.124E-03  0.124E-03
 -10.919  0.114E-03  0.114E-03
 -10.909  0.105E-03  0.105E-03
 -10.899  0.967E-04  0.967E-04
 -10.889  0.903E-04  0.903E-04
 -10.879  0.853E-04  0.853E-04
 -10.869  0.809E-04  0.809E-04
 -10.859  0.769E-04  0.769E-04
 -10.849  0.738E-04  0.738E-04
 -10.839  0.757E-04  0.757E-04
 -10.829  0.244E-03  0.244E-03
 -10.819  0.181E-03  0.181E-03
 -10.809  0.134E-03  0.134E-03
 -10.799  0.103E-03  0.103E-03
 -10.789  0.879E-04  0.879E-04
 -10.779  0.887E-04  0.887E-04
 -10.769  0.121E-03  0.121E-03
 -10.759  0.158E-03  0.158E-03
 -10.749  0.190E-03  0.190E-03
 -10.739  0.217E-03  0.217E-03
 -10.729  0.240E-03  0.240E-03
 -10.719  0.258E-03  0.258E-03
 -10.709  0.272E-03  0.272E-03
 -10.699  0.281E-03  0.281E-03
 -10.689  0.285E-03  0.285E-03
 -10.679  0.284E-03  0.284E-03
 -10.669  0.233E-03  0.233E-03
 -10.659  0.237E-03  0.237E-03
 -10.649  0.240E-03  0.240E-03
 -10.639  0.244E-03  0.244E-03
 -10.629  0.247E-03  0.247E-03
 -10.619  0.251E-03  0.251E-03
 -10.609  0.254E-03  0.254E-03
 -10.599  0.258E-03  0.258E-03
 -10.589  0.262E-03  0.262E-03
 -10.579  0.265E-03  0.265E-03
 -10.569  0.269E-03  0.269E-03
 -10.559  0.273E-03  0.273E-03
 -10.549  0.276E-03  0.276E-03
 -10.539  0.280E-03  0.280E-03
 -10.529  0.284E-03  0.284E-03
 -10.519  0.288E-03  0.288E-03
 -10.509  0.327E-03  0.327E-03
 -10.499  0.653E-03  0.653E-03
 -10.489  0.158E-02  0.158E-02
 -10.479  0.363E-03  0.363E-03
 -10.469  0.375E-03  0.375E-03
 -10.459  0.387E-03  0.387E-03
 -10.449  0.400E-03  0.400E-03
 -10.439  0.413E-03  0.413E-03
 -10.429  0.427E-03  0.427E-03
 -10.419  0.441E-03  0.441E-03
 -10.409  0.461E-03  0.461E-03
 -10.399  0.480E-03  0.480E-03
 -10.389  0.498E-03  0.498E-03
 -10.379  0.515E-03  0.515E-03
 -10.369  0.531E-03  0.531E-03
 -10.359  0.546E-03  0.546E-03
 -10.349  0.560E-03  0.560E-03
 -10.339  0.573E-03  0.573E-03
 -10.329  0.584E-03  0.584E-03
 -10.319  0.594E-03  0.594E-03
 -10.309  0.603E-03  0.603E-03
 -10.299  0.623E-03  0.623E-03
 -10.289  0.643E-03  0.643E-03
 -10.279  0.662E-03  0.662E-03
 -10.269  0.680E-03  0.680E-03
 -10.259  0.698E-03  0.698E-03
 -10.249  0.714E-03  0.714E-03
 -10.239  0.730E-03  0.730E-03
 -10.229  0.745E-03  0.745E-03
 -10.219  0.759E-03  0.759E-03
 -10.209  0.772E-03  0.772E-03
 -10.199  0.785E-03  0.785E-03
 -10.189  0.798E-03  0.798E-03
 -10.179  0.839E-03  0.839E-03
 -10.169  0.874E-03  0.874E-03
 -10.159  0.901E-03  0.901E-03
 -10.149  0.921E-03  0.921E-03
 -10.139  0.856E-03  0.856E-03
 -10.129  0.439E-03  0.439E-03
 -10.119  0.438E-03  0.438E-03
 -10.109  0.670E-03  0.670E-03
 -10.099  0.115E-02  0.115E-02
 -10.089  0.167E-02  0.167E-02
 -10.079  0.117E-02  0.117E-02
 -10.069  0.120E-02  0.120E-02
 -10.059  0.117E-02  0.117E-02
 -10.049  0.153E-02  0.153E-02
 -10.039  0.285E-02  0.285E-02
 -10.029  0.412E-02  0.412E-02
 -10.019  0.533E-02  0.533E-02
 -10.009  0.649E-02  0.649E-02
  -9.999  0.758E-02  0.758E-02
  -9.989  0.861E-02  0.861E-02
  -9.979  0.959E-02  0.959E-02
  -9.969  0.105E-01  0.105E-01
  -9.959  0.114E-01  0.114E-01
  -9.949  0.140E-01  0.140E-01
  -9.939  0.245E-01  0.245E-01
  -9.929  0.407E-01  0.407E-01
  -9.919  0.626E-01  0.626E-01
  -9.909  0.903E-01  0.903E-01
  -9.899  0.124E+00  0.124E+00
  -9.889  0.160E+00  0.160E+00
  -9.879  0.151E+00  0.151E+00
  -9.869  0.140E+00  0.140E+00
  -9.859  0.128E+00  0.128E+00
  -9.849  0.117E+00  0.117E+00
  -9.839  0.103E+00  0.103E+00
  -9.829  0.907E-01  0.907E-01
  -9.819  0.778E-01  0.778E-01
  -9.809  0.648E-01  0.648E-01
  -9.799  0.515E-01  0.515E-01
  -9.789  0.358E-01  0.358E-01
  -9.779  0.233E-01  0.233E-01
  -9.769  0.259E-01  0.259E-01
  -9.759  0.277E-01  0.277E-01
  -9.749  0.284E-01  0.284E-01
  -9.739  0.177E+00  0.177E+00
  -9.729  0.149E+00  0.149E+00
  -9.719  0.120E+00  0.120E+00
  -9.709  0.923E-01  0.923E-01
  -9.699  0.813E-01  0.813E-01
  -9.689  0.781E-01  0.781E-01
  -9.679  0.782E-01  0.782E-01
  -9.669  0.782E-01  0.782E-01
  -9.659  0.870E-01  0.870E-01
  -9.649  0.971E-01  0.971E-01
  -9.639  0.106E+00  0.106E+00
  -9.629  0.114E+00  0.114E+00
  -9.619  0.122E+00  0.122E+00
  -9.609  0.128E+00  0.128E+00
  -9.599  0.134E+00  0.134E+00
  -9.589  0.138E+00  0.138E+00
  -9.579  0.141E+00  0.141E+00
  -9.569  0.142E+00  0.142E+00
  -9.559  0.167E+00  0.167E+00
  -9.549  0.199E+00  0.199E+00
  -9.539  0.233E+00  0.233E+00
  -9.529  0.270E+00  0.270E+00
  -9.519  0.207E+00  0.207E+00
  -9.509  0.201E+00  0.201E+00
  -9.499  0.196E+00  0.196E+00
  -9.489  0.167E+00  0.167E+00
  -9.479  0.178E+00  0.178E+00
  -9.469  0.184E+00  0.184E+00
  -9.459  0.185E+00  0.185E+00
  -9.449  0.179E+00  0.179E+00
  -9.439  0.164E+00  0.164E+00
  -9.429  0.140E+00  0.140E+00
  -9.419  0.117E+00  0.117E+00
  -9.409  0.956E-01  0.956E-01
  -9.399  0.769E-01  0.769E-01
  -9.389  0.606E-01  0.606E-01
  -9.379  0.638E-01  0.638E-01
  -9.369  0.725E-01  0.725E-01
  -9.359  0.830E-01  0.830E-01
  -9.349  0.952E-01  0.952E-01
  -9.339  0.110E+00  0.110E+00
  -9.329  0.132E+00  0.132E+00
  -9.319  0.153E+00  0.153E+00
  -9.309  0.174E+00  0.174E+00
  -9.299  0.194E+00  0.194E+00
  -9.289  0.530E+00  0.530E+00
  -9.279  0.553E+00  0.553E+00
  -9.269  0.495E+00  0.495E+00
  -9.259  0.418E+00  0.418E+00
  -9.249  0.269E+00  0.269E+00
  -9.239  0.148E+00  0.148E+00
  -9.229  0.986E-01  0.986E-01
  -9.219  0.975E-01  0.975E-01
  -9.209  0.965E-01  0.965E-01
  -9.199  0.957E-01  0.957E-01
  -9.189  0.101E+00  0.101E+00
  -9.179  0.117E+00  0.117E+00
  -9.169  0.134E+00  0.134E+00
  -9.159  0.151E+00  0.151E+00
  -9.149  0.169E+00  0.169E+00
  -9.139  0.187E+00  0.187E+00
  -9.129  0.206E+00  0.206E+00
  -9.119  0.196E+00  0.196E+00
  -9.109  0.181E+00  0.181E+00
  -9.099  0.167E+00  0.167E+00
  -9.089  0.154E+00  0.154E+00
  -9.079  0.142E+00  0.142E+00
  -9.069  0.131E+00  0.131E+00
  -9.059  0.121E+00  0.121E+00
  -9.049  0.112E+00  0.112E+00
  -9.039  0.136E+00  0.136E+00
  -9.029  0.486E-01  0.486E-01
  -9.019  0.475E-01  0.475E-01
  -9.009  0.465E-01  0.465E-01
  -8.999  0.457E-01  0.457E-01
  -8.989  0.451E-01  0.451E-01
  -8.979  0.446E-01  0.446E-01
  -8.969  0.443E-01  0.443E-01
  -8.959  0.442E-01  0.442E-01
  -8.949  0.442E-01  0.442E-01
  -8.939  0.445E-01  0.445E-01
  -8.929  0.915E-01  0.915E-01
  -8.919  0.853E-01  0.853E-01
  -8.909  0.794E-01  0.794E-01
  -8.899  0.739E-01  0.739E-01
  -8.889  0.686E-01  0.686E-01
  -8.879  0.637E-01  0.637E-01
  -8.869  0.592E-01  0.592E-01
  -8.859  0.549E-01  0.549E-01
  -8.849  0.116E+00  0.116E+00
  -8.839  0.103E+00  0.103E+00
  -8.829  0.910E-01  0.910E-01
  -8.819  0.799E-01  0.799E-01
  -8.809  0.696E-01  0.696E-01
  -8.799  0.600E-01  0.600E-01
  -8.789  0.512E-01  0.512E-01
  -8.779  0.432E-01  0.432E-01
  -8.769  0.359E-01  0.359E-01
  -8.759  0.294E-01  0.294E-01
  -8.749  0.237E-01  0.237E-01
  -8.739  0.187E-01  0.187E-01
  -8.729  0.145E-01  0.145E-01
  -8.719  0.110E-01  0.110E-01
  -8.709  0.906E-02  0.906E-02
  -8.699  0.831E-02  0.831E-02
  -8.689  0.957E-02  0.957E-02
  -8.679  0.123E-01  0.123E-01
  -8.669  0.167E-01  0.167E-01
  -8.659  0.263E-01  0.263E-01
  -8.649  0.389E-01  0.389E-01
  -8.639  0.434E-01  0.434E-01
  -8.629  0.559E-01  0.559E-01
  -8.619  0.637E-01  0.637E-01
  -8.609  0.664E-01  0.664E-01
  -8.599  0.642E-01  0.642E-01
  -8.589  0.661E-01  0.661E-01
  -8.579  0.714E-01  0.714E-01
  -8.569  0.762E-01  0.762E-01
  -8.559  0.808E-01  0.808E-01
  -8.549  0.849E-01  0.849E-01
  -8.539  0.888E-01  0.888E-01
  -8.529  0.923E-01  0.923E-01
  -8.519  0.955E-01  0.955E-01
  -8.509  0.984E-01  0.984E-01
  -8.499  0.101E+00  0.101E+00
  -8.489  0.103E+00  0.103E+00
  -8.479  0.106E+00  0.106E+00
  -8.469  0.109E+00  0.109E+00
  -8.459  0.111E+00  0.111E+00
  -8.449  0.114E+00  0.114E+00
  -8.439  0.116E+00  0.116E+00
  -8.429  0.117E+00  0.117E+00
  -8.419  0.119E+00  0.119E+00
  -8.409  0.120E+00  0.120E+00
  -8.399  0.121E+00  0.121E+00
  -8.389  0.121E+00  0.121E+00
  -8.379  0.817E-01  0.817E-01
  -8.369  0.755E-01  0.755E-01
  -8.359  0.145E+00  0.145E+00
  -8.349  0.110E+00  0.110E+00
  -8.339  0.885E-01  0.885E-01
  -8.329  0.704E-01  0.704E-01
  -8.319  0.561E-01  0.561E-01
  -8.309  0.455E-01  0.455E-01
  -8.299  0.384E-01  0.384E-01
  -8.289  0.394E-01  0.394E-01
  -8.279  0.109E+00  0.109E+00
  -8.269  0.332E-01  0.332E-01
  -8.259  0.312E-01  0.312E-01
  -8.249  0.296E-01  0.296E-01
  -8.239  0.285E-01  0.285E-01
  -8.229  0.279E-01  0.279E-01
  -8.219  0.277E-01  0.277E-01
  -8.209  0.279E-01  0.279E-01
  -8.199  0.282E-01  0.282E-01
  -8.189  0.286E-01  0.286E-01
  -8.179  0.291E-01  0.291E-01
  -8.169  0.280E-01  0.280E-01
  -8.159  0.289E-01  0.289E-01
  -8.149  0.301E-01  0.301E-01
  -8.139  0.317E-01  0.317E-01
  -8.129  0.336E-01  0.336E-01
  -8.119  0.360E-01  0.360E-01
  -8.109  0.387E-01  0.387E-01
  -8.099  0.417E-01  0.417E-01
  -8.089  0.452E-01  0.452E-01
  -8.079  0.490E-01  0.490E-01
  -8.069  0.532E-01  0.532E-01
  -8.059  0.575E-01  0.575E-01
  -8.049  0.620E-01  0.620E-01
  -8.039  0.666E-01  0.666E-01
  -8.029  0.717E-01  0.717E-01
  -8.019  0.771E-01  0.771E-01
  -8.009  0.786E-01  0.786E-01
  -7.999  0.683E-01  0.683E-01
  -7.989  0.598E-01  0.598E-01
  -7.979  0.158E+00  0.158E+00
  -7.969  0.109E+00  0.109E+00
  -7.959  0.730E-01  0.730E-01
  -7.949  0.495E-01  0.495E-01
  -7.939  0.375E-01  0.375E-01
  -7.929  0.318E-01  0.318E-01
  -7.919  0.263E-01  0.263E-01
  -7.909  0.212E-01  0.212E-01
  -7.899  0.163E-01  0.163E-01
  -7.889  0.117E-01  0.117E-01
  -7.879  0.775E-02  0.775E-02
  -7.869  0.636E-02  0.636E-02
  -7.859  0.551E-02  0.551E-02
  -7.849  0.523E-02  0.523E-02
  -7.839  0.516E-02  0.516E-02
  -7.829  0.530E-02  0.530E-02
  -7.819  0.565E-02  0.565E-02
  -7.809  0.622E-02  0.622E-02
  -7.799  0.683E-02  0.683E-02
  -7.789  0.743E-02  0.743E-02
  -7.779  0.802E-02  0.802E-02
  -7.769  0.859E-02  0.859E-02
  -7.759  0.915E-02  0.915E-02
  -7.749  0.970E-02  0.970E-02
  -7.739  0.102E-01  0.102E-01
  -7.729  0.107E-01  0.107E-01
  -7.719  0.112E-01  0.112E-01
  -7.709  0.117E-01  0.117E-01
  -7.699  0.122E-01  0.122E-01
  -7.689  0.126E-01  0.126E-01
  -7.679  0.131E-01  0.131E-01
  -7.669  0.135E-01  0.135E-01
  -7.659  0.139E-01  0.139E-01
  -7.649  0.422E-01  0.422E-01
  -7.639  0.108E+00  0.108E+00
  -7.629  0.153E+00  0.153E+00
  -7.619  0.183E+00  0.183E+00
  -7.609  0.149E+00  0.149E+00
  -7.599  0.425E-01  0.425E-01
  -7.589  0.176E-01  0.176E-01
  -7.579  0.178E-01  0.178E-01
  -7.569  0.180E-01  0.180E-01
  -7.559  0.183E-01  0.183E-01
  -7.549  0.188E-01  0.188E-01
  -7.539  0.193E-01  0.193E-01
  -7.529  0.199E-01  0.199E-01
  -7.519  0.207E-01  0.207E-01
  -7.509  0.215E-01  0.215E-01
  -7.499  0.225E-01  0.225E-01
  -7.489  0.235E-01  0.235E-01
  -7.479  0.247E-01  0.247E-01
  -7.469  0.259E-01  0.259E-01
  -7.459  0.272E-01  0.272E-01
  -7.449  0.287E-01  0.287E-01
  -7.439  0.302E-01  0.302E-01
  -7.429  0.318E-01  0.318E-01
  -7.419  0.954E-01  0.954E-01
  -7.409  0.814E-01  0.814E-01
  -7.399  0.692E-01  0.692E-01
  -7.389  0.603E-01  0.603E-01
  -7.379  0.539E-01  0.539E-01
  -7.369  0.493E-01  0.493E-01
  -7.359  0.463E-01  0.463E-01
  -7.349  0.451E-01  0.451E-01
  -7.339  0.444E-01  0.444E-01
  -7.329  0.429E-01  0.429E-01
  -7.319  0.406E-01  0.406E-01
  -7.309  0.373E-01  0.373E-01
  -7.299  0.332E-01  0.332E-01
  -7.289  0.285E-01  0.285E-01
  -7.279  0.249E-01  0.249E-01
  -7.269  0.260E-01  0.260E-01
  -7.259  0.248E-01  0.248E-01
  -7.249  0.238E-01  0.238E-01
  -7.239  0.231E-01  0.231E-01
  -7.229  0.226E-01  0.226E-01
  -7.219  0.219E-01  0.219E-01
  -7.209  0.212E-01  0.212E-01
  -7.199  0.206E-01  0.206E-01
  -7.189  0.201E-01  0.201E-01
  -7.179  0.197E-01  0.197E-01
  -7.169  0.194E-01  0.194E-01
  -7.159  0.192E-01  0.192E-01
  -7.149  0.191E-01  0.191E-01
  -7.139  0.191E-01  0.191E-01
  -7.129  0.193E-01  0.193E-01
  -7.119  0.195E-01  0.195E-01
  -7.109  0.199E-01  0.199E-01
  -7.099  0.203E-01  0.203E-01
  -7.089  0.209E-01  0.209E-01
  -7.079  0.215E-01  0.215E-01
  -7.069  0.223E-01  0.223E-01
  -7.059  0.232E-01  0.232E-01
  -7.049  0.242E-01  0.242E-01
  -7.039  0.253E-01  0.253E-01
  -7.029  0.265E-01  0.265E-01
  -7.019  0.278E-01  0.278E-01
  -7.009  0.446E-01  0.446E-01
  -6.999  0.326E-01  0.326E-01
  -6.989  0.482E-01  0.482E-01
  -6.979  0.103E+00  0.103E+00
  -6.969  0.477E-01  0.477E-01
  -6.959  0.442E-01  0.442E-01
  -6.949  0.417E-01  0.417E-01
  -6.939  0.400E-01  0.400E-01
  -6.929  0.393E-01  0.393E-01
  -6.919  0.396E-01  0.396E-01
  -6.909  0.407E-01  0.407E-01
  -6.899  0.428E-01  0.428E-01
  -6.889  0.258E-01  0.258E-01
  -6.879  0.230E-01  0.230E-01
  -6.869  0.205E-01  0.205E-01
  -6.859  0.185E-01  0.185E-01
  -6.849  0.138E+01  0.138E+01
  -6.839  0.181E-01  0.181E-01
  -6.829  0.238E-01  0.238E-01
  -6.819  0.342E-01  0.342E-01
  -6.809  0.211E-01  0.211E-01
  -6.799  0.191E-01  0.191E-01
  -6.789  0.171E-01  0.171E-01
  -6.779  0.150E-01  0.150E-01
  -6.769  0.130E-01  0.130E-01
  -6.759  0.109E-01  0.109E-01
  -6.749  0.872E-02  0.872E-02
  -6.739  0.657E-02  0.657E-02
  -6.729  0.438E-02  0.438E-02
  -6.719  0.271E-02  0.271E-02
  -6.709  0.246E-02  0.246E-02
  -6.699  0.238E-02  0.238E-02
  -6.689  0.233E-02  0.233E-02
  -6.679  0.227E-02  0.227E-02
  -6.669  0.222E-02  0.222E-02
  -6.659  0.270E-02  0.270E-02
  -6.649  0.447E-02  0.447E-02
  -6.639  0.627E-02  0.627E-02
  -6.629  0.810E-02  0.810E-02
  -6.619  0.995E-02  0.995E-02
  -6.609  0.128E-01  0.128E-01
  -6.599  0.168E-01  0.168E-01
  -6.589  0.196E-01  0.196E-01
  -6.579  0.213E-01  0.213E-01
  -6.569  0.218E-01  0.218E-01
  -6.559  0.210E-01  0.210E-01
  -6.549  0.191E-01  0.191E-01
  -6.539  0.300E-01  0.300E-01
  -6.529  0.468E-01  0.468E-01
  -6.519  0.562E-01  0.562E-01
  -6.509  0.215E-01  0.215E-01
  -6.499  0.228E-01  0.228E-01
  -6.489  0.239E-01  0.239E-01
  -6.479  0.250E-01  0.250E-01
  -6.469  0.261E-01  0.261E-01
  -6.459  0.273E-01  0.273E-01
  -6.449  0.283E-01  0.283E-01
  -6.439  0.292E-01  0.292E-01
  -6.429  0.300E-01  0.300E-01
  -6.419  0.308E-01  0.308E-01
  -6.409  0.314E-01  0.314E-01
  -6.399  0.319E-01  0.319E-01
  -6.389  0.323E-01  0.323E-01
  -6.379  0.328E-01  0.328E-01
  -6.369  0.337E-01  0.337E-01
  -6.359  0.352E-01  0.352E-01
  -6.349  0.374E-01  0.374E-01
  -6.339  0.401E-01  0.401E-01
  -6.329  0.435E-01  0.435E-01
  -6.319  0.242E+00  0.242E+00
  -6.309  0.118E+00  0.118E+00
  -6.299  0.446E-01  0.446E-01
  -6.289  0.169E-01  0.169E-01
  -6.279  0.188E-01  0.188E-01
  -6.269  0.243E-01  0.243E-01
  -6.259  0.334E-01  0.334E-01
  -6.249  0.461E-01  0.461E-01
  -6.239  0.182E-01  0.182E-01
  -6.229  0.183E-01  0.183E-01
  -6.219  0.185E-01  0.185E-01
  -6.209  0.187E-01  0.187E-01
  -6.199  0.189E-01  0.189E-01
  -6.189  0.196E-01  0.196E-01
  -6.179  0.196E-01  0.196E-01
  -6.169  0.196E-01  0.196E-01
  -6.159  0.211E-01  0.211E-01
  -6.149  0.208E-01  0.208E-01
  -6.139  0.203E-01  0.203E-01
  -6.129  0.196E-01  0.196E-01
  -6.119  0.190E-01  0.190E-01
  -6.109  0.185E-01  0.185E-01
  -6.099  0.157E-01  0.157E-01
  -6.089  0.154E-01  0.154E-01
  -6.079  0.150E-01  0.150E-01
  -6.069  0.148E-01  0.148E-01
  -6.059  0.146E-01  0.146E-01
  -6.049  0.145E-01  0.145E-01
  -6.039  0.146E-01  0.146E-01
  -6.029  0.148E-01  0.148E-01
  -6.019  0.150E-01  0.150E-01
  -6.009  0.153E-01  0.153E-01
  -5.999  0.156E-01  0.156E-01
  -5.989  0.159E-01  0.159E-01
  -5.979  0.162E-01  0.162E-01
  -5.969  0.166E-01  0.166E-01
  -5.959  0.170E-01  0.170E-01
  -5.949  0.174E-01  0.174E-01
  -5.939  0.179E-01  0.179E-01
  -5.929  0.183E-01  0.183E-01
  -5.919  0.187E-01  0.187E-01
  -5.909  0.194E-01  0.194E-01
  -5.899  0.196E-01  0.196E-01
  -5.889  0.200E-01  0.200E-01
  -5.879  0.204E-01  0.204E-01
  -5.869  0.204E-01  0.204E-01
  -5.859  0.205E-01  0.205E-01
  -5.849  0.207E-01  0.207E-01
  -5.839  0.209E-01  0.209E-01
  -5.829  0.213E-01  0.213E-01
  -5.819  0.221E-01  0.221E-01
  -5.809  0.244E-01  0.244E-01
  -5.799  0.273E-01  0.273E-01
  -5.789  0.308E-01  0.308E-01
  -5.779  0.350E-01  0.350E-01
  -5.769  0.398E-01  0.398E-01
  -5.759  0.452E-01  0.452E-01
  -5.749  0.513E-01  0.513E-01
  -5.739  0.580E-01  0.580E-01
  -5.729  0.758E-01  0.758E-01
  -5.719  0.751E-01  0.751E-01
  -5.709  0.569E-01  0.569E-01
  -5.699  0.218E-01  0.218E-01
  -5.689  0.208E-01  0.208E-01
  -5.679  0.204E-01  0.204E-01
  -5.669  0.199E-01  0.199E-01
  -5.659  0.193E-01  0.193E-01
  -5.649  0.187E-01  0.187E-01
  -5.639  0.181E-01  0.181E-01
  -5.629  0.177E-01  0.177E-01
  -5.619  0.173E-01  0.173E-01
  -5.609  0.171E-01  0.171E-01
  -5.599  0.170E-01  0.170E-01
  -5.589  0.169E-01  0.169E-01
  -5.579  0.170E-01  0.170E-01
  -5.569  0.147E-01  0.147E-01
  -5.559  0.147E-01  0.147E-01
  -5.549  0.147E-01  0.147E-01
  -5.539  0.146E-01  0.146E-01
  -5.529  0.146E-01  0.146E-01
  -5.519  0.145E-01  0.145E-01
  -5.509  0.145E-01  0.145E-01
  -5.499  0.144E-01  0.144E-01
  -5.489  0.144E-01  0.144E-01
  -5.479  0.143E-01  0.143E-01
  -5.469  0.143E-01  0.143E-01
  -5.459  0.142E-01  0.142E-01
  -5.449  0.142E-01  0.142E-01
  -5.439  0.141E-01  0.141E-01
  -5.429  0.141E-01  0.141E-01
  -5.419  0.140E-01  0.140E-01
  -5.409  0.140E-01  0.140E-01
  -5.399  0.467E-01  0.467E-01
  -5.389  0.174E-01  0.174E-01
  -5.379  0.778E-02  0.778E-02
  -5.369  0.790E-02  0.790E-02
  -5.359  0.853E-02  0.853E-02
  -5.349  0.898E-02  0.898E-02
  -5.339  0.925E-02  0.925E-02
  -5.329  0.935E-02  0.935E-02
  -5.319  0.927E-02  0.927E-02
  -5.309  0.901E-02  0.901E-02
  -5.299  0.858E-02  0.858E-02
  -5.289  0.797E-02  0.797E-02
  -5.279  0.719E-02  0.719E-02
  -5.269  0.662E-02  0.662E-02
  -5.259  0.106E-01  0.106E-01
  -5.249  0.189E-01  0.189E-01
  -5.239  0.190E-01  0.190E-01
  -5.229  0.199E-01  0.199E-01
  -5.219  0.307E-01  0.307E-01
  -5.209  0.329E-01  0.329E-01
  -5.199  0.250E-01  0.250E-01
  -5.189  0.207E-01  0.207E-01
  -5.179  0.312E-01  0.312E-01
  -5.169  0.463E-01  0.463E-01
  -5.159  0.709E-01  0.709E-01
  -5.149  0.301E-01  0.301E-01
  -5.139  0.272E-01  0.272E-01
  -5.129  0.243E-01  0.243E-01
  -5.119  0.214E-01  0.214E-01
  -5.109  0.186E-01  0.186E-01
  -5.099  0.159E-01  0.159E-01
  -5.089  0.133E-01  0.133E-01
  -5.079  0.108E-01  0.108E-01
  -5.069  0.836E-02  0.836E-02
  -5.059  0.597E-02  0.597E-02
  -5.049  0.400E-02  0.400E-02
  -5.039  0.440E-02  0.440E-02
  -5.029  0.483E-02  0.483E-02
  -5.019  0.528E-02  0.528E-02
  -5.009  0.647E-02  0.647E-02
  -4.999  0.772E-02  0.772E-02
  -4.989  0.891E-02  0.891E-02
  -4.979  0.131E-01  0.131E-01
  -4.969  0.177E-01  0.177E-01
  -4.959  0.208E-01  0.208E-01
  -4.949  0.219E-01  0.219E-01
  -4.939  0.233E-01  0.233E-01
  -4.929  0.228E-01  0.228E-01
  -4.919  0.194E-01  0.194E-01
  -4.909  0.125E-01  0.125E-01
  -4.899  0.519E-02  0.519E-02
  -4.889  0.191E-01  0.191E-01
  -4.879  0.593E-02  0.593E-02
  -4.869  0.207E-02  0.207E-02
  -4.859  0.188E-02  0.188E-02
  -4.849  0.198E-02  0.198E-02
  -4.839  0.233E-02  0.233E-02
  -4.829  0.299E-02  0.299E-02
  -4.819  0.397E-02  0.397E-02
  -4.809  0.526E-02  0.526E-02
  -4.799  0.446E-02  0.446E-02
  -4.789  0.529E-02  0.529E-02
  -4.779  0.625E-02  0.625E-02
  -4.769  0.732E-02  0.732E-02
  -4.759  0.819E-02  0.819E-02
  -4.749  0.919E-02  0.919E-02
  -4.739  0.102E-01  0.102E-01
  -4.729  0.111E-01  0.111E-01
  -4.719  0.120E-01  0.120E-01
  -4.709  0.128E-01  0.128E-01
  -4.699  0.137E-01  0.137E-01
  -4.689  0.263E-01  0.263E-01
  -4.679  0.389E-01  0.389E-01
  -4.669  0.304E-01  0.304E-01
  -4.659  0.211E-01  0.211E-01
  -4.649  0.140E-01  0.140E-01
  -4.639  0.915E-02  0.915E-02
  -4.629  0.647E-02  0.647E-02
  -4.619  0.610E-02  0.610E-02
  -4.609  0.982E-02  0.982E-02
  -4.599  0.601E-02  0.601E-02
  -4.589  0.497E-02  0.497E-02
  -4.579  0.498E-02  0.498E-02
  -4.569  0.509E-02  0.509E-02
  -4.559  0.776E-02  0.776E-02
  -4.549  0.106E-01  0.106E-01
  -4.539  0.130E-01  0.130E-01
  -4.529  0.150E-01  0.150E-01
  -4.519  0.162E-01  0.162E-01
  -4.509  0.159E-01  0.159E-01
  -4.499  0.164E-01  0.164E-01
  -4.489  0.163E-01  0.163E-01
  -4.479  0.211E-01  0.211E-01
  -4.469  0.203E-01  0.203E-01
  -4.459  0.986E-02  0.986E-02
  -4.449  0.732E-02  0.732E-02
  -4.439  0.518E-02  0.518E-02
  -4.429  0.508E-02  0.508E-02
  -4.419  0.491E-02  0.491E-02
  -4.409  0.467E-02  0.467E-02
  -4.399  0.436E-02  0.436E-02
  -4.389  0.399E-02  0.399E-02
  -4.379  0.355E-02  0.355E-02
  -4.369  0.304E-02  0.304E-02
  -4.359  0.264E-02  0.264E-02
  -4.349  0.252E-02  0.252E-02
  -4.339  0.268E-02  0.268E-02
  -4.329  0.313E-02  0.313E-02
  -4.319  0.145E-02  0.145E-02
  -4.309  0.122E-02  0.122E-02
  -4.299  0.102E-02  0.102E-02
  -4.289  0.918E-03  0.918E-03
  -4.279  0.873E-03  0.873E-03
  -4.269  0.887E-03  0.887E-03
  -4.259  0.955E-03  0.955E-03
  -4.249  0.859E-03  0.859E-03
  -4.239  0.101E-02  0.101E-02
  -4.229  0.142E-02  0.142E-02
  -4.219  0.196E-02  0.196E-02
  -4.209  0.296E-02  0.296E-02
  -4.199  0.427E-02  0.427E-02
  -4.189  0.545E-02  0.545E-02
  -4.179  0.645E-02  0.645E-02
  -4.169  0.727E-02  0.727E-02
  -4.159  0.791E-02  0.791E-02
  -4.149  0.837E-02  0.837E-02
  -4.139  0.864E-02  0.864E-02
  -4.129  0.874E-02  0.874E-02
  -4.119  0.134E-01  0.134E-01
  -4.109  0.739E-02  0.739E-02
  -4.099  0.713E-02  0.713E-02
  -4.089  0.691E-02  0.691E-02
  -4.079  0.662E-02  0.662E-02
  -4.069  0.411E-02  0.411E-02
  -4.059  0.377E-02  0.377E-02
  -4.049  0.345E-02  0.345E-02
  -4.039  0.315E-02  0.315E-02
  -4.029  0.287E-02  0.287E-02
  -4.019  0.261E-02  0.261E-02
  -4.009  0.237E-02  0.237E-02
  -3.999  0.215E-02  0.215E-02
  -3.989  0.196E-02  0.196E-02
  -3.979  0.178E-02  0.178E-02
  -3.969  0.161E-02  0.161E-02
  -3.959  0.153E-02  0.153E-02
  -3.949  0.148E-02  0.148E-02
  -3.939  0.254E-02  0.254E-02
  -3.929  0.238E-02  0.238E-02
  -3.919  0.259E-02  0.259E-02
  -3.909  0.260E-02  0.260E-02
  -3.899  0.241E-02  0.241E-02
  -3.889  0.204E-02  0.204E-02
  -3.879  0.167E-02  0.167E-02
  -3.869  0.134E-02  0.134E-02
  -3.859  0.105E-02  0.105E-02
  -3.849  0.791E-03  0.791E-03
  -3.839  0.554E-03  0.554E-03
  -3.829  0.364E-03  0.364E-03
  -3.819  0.226E-03  0.226E-03
  -3.809  0.107E-03  0.107E-03
  -3.799  0.278E-03  0.278E-03
  -3.789  0.724E-03  0.724E-03
  -3.779  0.145E-02  0.145E-02
  -3.769  0.244E-02  0.244E-02
  -3.759  0.370E-02  0.370E-02
  -3.749  0.524E-02  0.524E-02
  -3.739  0.328E-02  0.328E-02
  -3.729  0.343E-02  0.343E-02
  -3.719  0.360E-02  0.360E-02
  -3.709  0.372E-02  0.372E-02
  -3.699  0.383E-02  0.383E-02
  -3.689  0.502E-02  0.502E-02
  -3.679  0.412E-02  0.412E-02
  -3.669  0.406E-02  0.406E-02
  -3.659  0.384E-02  0.384E-02
  -3.649  0.347E-02  0.347E-02
  -3.639  0.294E-02  0.294E-02
  -3.629  0.227E-02  0.227E-02
  -3.619  0.188E-02  0.188E-02
  -3.609  0.178E-02  0.178E-02
  -3.599  0.168E-02  0.168E-02
  -3.589  0.158E-02  0.158E-02
  -3.579  0.148E-02  0.148E-02
  -3.569  0.139E-02  0.139E-02
  -3.559  0.129E-02  0.129E-02
  -3.549  0.120E-02  0.120E-02
  -3.539  0.111E-02  0.111E-02
  -3.529  0.103E-02  0.103E-02
  -3.519  0.946E-03  0.946E-03
  -3.509  0.872E-03  0.872E-03
  -3.499  0.805E-03  0.805E-03
  -3.489  0.623E-03  0.623E-03
  -3.479  0.540E-03  0.540E-03
  -3.469  0.411E-03  0.411E-03
  -3.459  0.435E-03  0.435E-03
  -3.449  0.461E-03  0.461E-03
  -3.439  0.489E-03  0.489E-03
  -3.429  0.519E-03  0.519E-03
  -3.419  0.551E-03  0.551E-03
  -3.409  0.585E-03  0.585E-03
  -3.399  0.620E-03  0.620E-03
  -3.389  0.658E-03  0.658E-03
  -3.379  0.697E-03  0.697E-03
  -3.369  0.739E-03  0.739E-03
  -3.359  0.727E-03  0.727E-03
  -3.349  0.636E-03  0.636E-03
  -3.339  0.546E-03  0.546E-03
  -3.329  0.461E-03  0.461E-03
  -3.319  0.384E-03  0.384E-03
  -3.309  0.314E-03  0.314E-03
  -3.299  0.251E-03  0.251E-03
  -3.289  0.196E-03  0.196E-03
  -3.279  0.148E-03  0.148E-03
  -3.269  0.108E-03  0.108E-03
  -3.259  0.111E-03  0.111E-03
  -3.249  0.110E-03  0.110E-03
  -3.239  0.887E-04  0.887E-04
  -3.229  0.481E-04  0.481E-04
  -3.219  0.385E-04  0.385E-04
  -3.209  0.400E-04  0.400E-04
  -3.199  0.414E-04  0.414E-04
  -3.189  0.429E-04  0.429E-04
  -3.179  0.445E-04  0.445E-04
  -3.169  0.461E-04  0.461E-04
  -3.159  0.478E-04  0.478E-04
  -3.149  0.495E-04  0.495E-04
  -3.139  0.482E-04  0.482E-04
  -3.129  0.483E-04  0.483E-04
  -3.119  0.485E-04  0.485E-04
  -3.109  0.492E-04  0.492E-04
  -3.099  0.498E-04  0.498E-04
  -3.089  0.503E-04  0.503E-04
  -3.079  0.507E-04  0.507E-04
  -3.069  0.509E-04  0.509E-04
  -3.059  0.506E-04  0.506E-04
  -3.049  0.495E-04  0.495E-04
  -3.039  0.478E-04  0.478E-04
  -3.029  0.536E-04  0.536E-04
  -3.019  0.856E-04  0.856E-04
  -3.009  0.442E-04  0.442E-04
  -2.999  0.436E-04  0.436E-04
  -2.989  0.431E-04  0.431E-04
  -2.979  0.429E-04  0.429E-04
  -2.969  0.428E-04  0.428E-04
  -2.959  0.428E-04  0.428E-04
  -2.949  0.501E-04  0.501E-04
  -2.939  0.485E-04  0.485E-04
  -2.929  0.474E-04  0.474E-04
  -2.919  0.469E-04  0.469E-04
  -2.909  0.550E-04  0.550E-04
  -2.899  0.549E-04  0.549E-04
  -2.889  0.557E-04  0.557E-04
  -2.879  0.577E-04  0.577E-04
  -2.869  0.450E-04  0.450E-04
  -2.859  0.356E-04  0.356E-04
  -2.849  0.340E-04  0.340E-04
  -2.839  0.318E-04  0.318E-04
  -2.829  0.291E-04  0.291E-04
  -2.819  0.257E-04  0.257E-04
  -2.809  0.217E-04  0.217E-04
  -2.799  0.283E-04  0.283E-04
  -2.789  0.156E-03  0.156E-03
  -2.779  0.306E-04  0.306E-04
  -2.769  0.399E-04  0.399E-04
  -2.759  0.484E-04  0.484E-04
  -2.749  0.566E-04  0.566E-04
  -2.739  0.642E-04  0.642E-04
  -2.729  0.713E-04  0.713E-04
  -2.719  0.777E-04  0.777E-04
  -2.709  0.129E-03  0.129E-03
  -2.699  0.948E-04  0.948E-04
  -2.689  0.974E-04  0.974E-04
  -2.679  0.118E-03  0.118E-03
  -2.669  0.144E-03  0.144E-03
  -2.659  0.223E-03  0.223E-03
  -2.649  0.176E-03  0.176E-03
  -2.639  0.151E-03  0.151E-03
  -2.629  0.641E-04  0.641E-04
  -2.619  0.521E-04  0.521E-04
  -2.609  0.485E-04  0.485E-04
  -2.599  0.521E-04  0.521E-04
  -2.589  0.883E-04  0.883E-04
  -2.579  0.856E-04  0.856E-04
  -2.569  0.838E-04  0.838E-04
  -2.559  0.132E-03  0.132E-03
  -2.549  0.590E-04  0.590E-04
  -2.539  0.552E-04  0.552E-04
  -2.529  0.526E-04  0.526E-04
  -2.519  0.539E-04  0.539E-04
  -2.509  0.668E-04  0.668E-04
  -2.499  0.724E-04  0.724E-04
  -2.489  0.732E-04  0.732E-04
  -2.479  0.683E-04  0.683E-04
  -2.469  0.609E-04  0.609E-04
  -2.459  0.479E-04  0.479E-04
  -2.449  0.294E-04  0.294E-04
  -2.439  0.700E-05  0.700E-05
  -2.429  0.672E-05  0.672E-05
  -2.419  0.674E-05  0.674E-05
  -2.409  0.846E-05  0.846E-05
  -2.399  0.123E-04  0.123E-04
  -2.389  0.163E-04  0.163E-04
  -2.379  0.949E-05  0.949E-05
  -2.369  0.784E-05  0.784E-05
  -2.359  0.744E-05  0.744E-05
  -2.349  0.260E-04  0.260E-04
  -2.339  0.429E-04  0.429E-04
  -2.329  0.622E-04  0.622E-04
  -2.319  0.792E-04  0.792E-04
  -2.309  0.960E-04  0.960E-04
  -2.299  0.863E-04  0.863E-04
  -2.289  0.591E-04  0.591E-04
  -2.279  0.526E-04  0.526E-04
  -2.269  0.487E-04  0.487E-04
  -2.259  0.436E-04  0.436E-04
  -2.249  0.387E-04  0.387E-04
  -2.239  0.347E-04  0.347E-04
  -2.229  0.306E-04  0.306E-04
  -2.219  0.266E-04  0.266E-04
  -2.209  0.226E-04  0.226E-04
  -2.199  0.186E-04  0.186E-04
  -2.189  0.146E-04  0.146E-04
  -2.179  0.129E-04  0.129E-04
  -2.169  0.608E-05  0.608E-05
  -2.159  0.702E-05  0.702E-05
  -2.149  0.102E-04  0.102E-04
  -2.139  0.160E-04  0.160E-04
  -2.129  0.230E-04  0.230E-04
  -2.119  0.182E-04  0.182E-04
  -2.109  0.198E-04  0.198E-04
  -2.099  0.210E-04  0.210E-04
  -2.089  0.383E-05  0.383E-05
  -2.079  0.424E-05  0.424E-05
  -2.069  0.465E-05  0.465E-05
  -2.059  0.507E-05  0.507E-05
  -2.049  0.649E-05  0.649E-05
  -2.039  0.652E-05  0.652E-05
  -2.029  0.663E-05  0.663E-05
  -2.019  0.757E-05  0.757E-05
  -2.009  0.739E-05  0.739E-05
  -1.999  0.723E-05  0.723E-05
  -1.989  0.709E-05  0.709E-05
  -1.979  0.698E-05  0.698E-05
  -1.969  0.688E-05  0.688E-05
  -1.959  0.676E-05  0.676E-05
  -1.949  0.662E-05  0.662E-05
  -1.939  0.645E-05  0.645E-05
  -1.929  0.626E-05  0.626E-05
  -1.919  0.604E-05  0.604E-05
  -1.909  0.773E-05  0.773E-05
  -1.899  0.888E-05  0.888E-05
  -1.889  0.914E-05  0.914E-05
  -1.879  0.849E-05  0.849E-05
  -1.869  0.599E-05  0.599E-05
  -1.859  0.172E-03  0.172E-03
  -1.849  0.142E-03  0.142E-03
  -1.839  0.153E-03  0.153E-03
  -1.829  0.931E-04  0.931E-04
  -1.819  0.705E-04  0.705E-04
  -1.809  0.522E-04  0.522E-04
  -1.799  0.392E-04  0.392E-04
  -1.789  0.403E-04  0.403E-04
  -1.779  0.410E-04  0.410E-04
  -1.769  0.412E-04  0.412E-04
  -1.759  0.409E-04  0.409E-04
  -1.749  0.401E-04  0.401E-04
  -1.739  0.389E-04  0.389E-04
  -1.729  0.371E-04  0.371E-04
  -1.719  0.350E-04  0.350E-04
  -1.709  0.323E-04  0.323E-04
  -1.699  0.325E-04  0.325E-04
  -1.689  0.334E-04  0.334E-04
  -1.679  0.344E-04  0.344E-04
  -1.669  0.354E-04  0.354E-04
  -1.659  0.365E-04  0.365E-04
  -1.649  0.377E-04  0.377E-04
  -1.639  0.297E-04  0.297E-04
  -1.629  0.250E-04  0.250E-04
  -1.619  0.223E-04  0.223E-04
  -1.609  0.224E-04  0.224E-04
  -1.599  0.252E-04  0.252E-04
  -1.589  0.325E-04  0.325E-04
  -1.579  0.761E-04  0.761E-04
  -1.569  0.184E-04  0.184E-04
  -1.559  0.185E-04  0.185E-04
  -1.549  0.345E-04  0.345E-04
  -1.539  0.223E-04  0.223E-04
  -1.529  0.212E-04  0.212E-04
  -1.519  0.198E-04  0.198E-04
  -1.509  0.178E-04  0.178E-04
  -1.499  0.155E-04  0.155E-04
  -1.489  0.127E-04  0.127E-04
  -1.479  0.941E-05  0.941E-05
  -1.469  0.571E-05  0.571E-05
  -1.459  0.333E-05  0.333E-05
  -1.449  0.347E-05  0.347E-05
  -1.439  0.375E-05  0.375E-05
  -1.429  0.416E-05  0.416E-05
  -1.419  0.469E-05  0.469E-05
  -1.409  0.534E-05  0.534E-05
  -1.399  0.613E-05  0.613E-05
  -1.389  0.704E-05  0.704E-05
  -1.379  0.807E-05  0.807E-05
  -1.369  0.923E-05  0.923E-05
  -1.359  0.105E-04  0.105E-04
  -1.349  0.119E-04  0.119E-04
  -1.339  0.134E-04  0.134E-04
  -1.329  0.150E-04  0.150E-04
  -1.319  0.698E-05  0.698E-05
  -1.309  0.695E-05  0.695E-05
  -1.299  0.689E-05  0.689E-05
  -1.289  0.679E-05  0.679E-05
  -1.279  0.667E-05  0.667E-05
  -1.269  0.651E-05  0.651E-05
  -1.259  0.633E-05  0.633E-05
  -1.249  0.619E-05  0.619E-05
  -1.239  0.599E-05  0.599E-05
  -1.229  0.571E-05  0.571E-05
  -1.219  0.542E-05  0.542E-05
  -1.209  0.514E-05  0.514E-05
  -1.199  0.486E-05  0.486E-05
  -1.189  0.459E-05  0.459E-05
  -1.179  0.434E-05  0.434E-05
  -1.169  0.409E-05  0.409E-05
  -1.159  0.384E-05  0.384E-05
  -1.149  0.361E-05  0.361E-05
  -1.139  0.338E-05  0.338E-05
  -1.129  0.316E-05  0.316E-05
  -1.119  0.295E-05  0.295E-05
  -1.109  0.275E-05  0.275E-05
  -1.099  0.261E-05  0.261E-05
  -1.089  0.254E-05  0.254E-05
  -1.079  0.246E-05  0.246E-05
  -1.069  0.237E-05  0.237E-05
  -1.059  0.227E-05  0.227E-05
  -1.049  0.217E-05  0.217E-05
  -1.039  0.206E-05  0.206E-05
  -1.029  0.195E-05  0.195E-05
  -1.019  0.182E-05  0.182E-05
  -1.009  0.169E-05  0.169E-05
  -0.999  0.155E-05  0.155E-05
  -0.989  0.140E-05  0.140E-05
  -0.979  0.125E-05  0.125E-05
  -0.969  0.109E-05  0.109E-05
  -0.959  0.921E-06  0.921E-06
  -0.949  0.867E-06  0.867E-06
  -0.939  0.793E-06  0.793E-06
  -0.929  0.722E-06  0.722E-06
  -0.919  0.655E-06  0.655E-06
  -0.909  0.591E-06  0.591E-06
  -0.899  0.530E-06  0.530E-06
  -0.889  0.472E-06  0.472E-06
  -0.879  0.418E-06  0.418E-06
  -0.869  0.367E-06  0.367E-06
  -0.859  0.319E-06  0.319E-06
  -0.849  0.275E-06  0.275E-06
  -0.839  0.234E-06  0.234E-06
  -0.829  0.196E-06  0.196E-06
  -0.819  0.162E-06  0.162E-06
  -0.809  0.131E-06  0.131E-06
  -0.799  0.103E-06  0.103E-06
  -0.789  0.783E-07  0.783E-07
  -0.779  0.572E-07  0.572E-07
  -0.769  0.394E-07  0.394E-07
  -0.759  0.249E-07  0.249E-07
  -0.749  0.137E-07  0.137E-07
  -0.739  0.582E-08  0.582E-08
  -0.729  0.127E-08  0.127E-08
  -0.719  0.000E+00  0.000E+00
  -0.709  0.000E+00  0.000E+00
  -0.699  0.000E+00  0.000E+00
  -0.689  0.000E+00  0.000E+00
  -0.679  0.000E+00  0.000E+00
  -0.669  0.000E+00  0.000E+00
  -0.659  0.000E+00  0.000E+00
  -0.649  0.000E+00  0.000E+00
  -0.639  0.000E+00  0.000E+00
  -0.629  0.000E+00  0.000E+00
  -0.619  0.198E-07  0.198E-07
  -0.609  0.138E-06  0.138E-06
  -0.599  0.284E-06  0.284E-06
  -0.589  0.458E-06  0.458E-06
  -0.579  0.660E-06  0.660E-06
  -0.569  0.198E-05  0.198E-05
  -0.559  0.354E-05  0.354E-05
  -0.549  0.511E-05  0.511E-05
  -0.539  0.668E-05  0.668E-05
  -0.529  0.824E-05  0.824E-05
  -0.519  0.980E-05  0.980E-05
  -0.509  0.114E-04  0.114E-04
  -0.499  0.129E-04  0.129E-04
  -0.489  0.145E-04  0.145E-04
  -0.479  0.160E-04  0.160E-04
  -0.469  0.176E-04  0.176E-04
  -0.459  0.191E-04  0.191E-04
  -0.449  0.207E-04  0.207E-04
  -0.439  0.223E-04  0.223E-04
  -0.429  0.238E-04  0.238E-04
  -0.419  0.431E-04  0.431E-04
  -0.409  0.496E-04  0.496E-04
  -0.399  0.570E-04  0.570E-04
  -0.389  0.648E-04  0.648E-04
  -0.379  0.729E-04  0.729E-04
  -0.369  0.814E-04  0.814E-04
  -0.359  0.104E-03  0.104E-03
  -0.349  0.351E-03  0.351E-03
  -0.339  0.773E-03  0.773E-03
  -0.329  0.120E-02  0.120E-02
  -0.319  0.583E-03  0.583E-03
  -0.309  0.598E-03  0.598E-03
  -0.299  0.601E-03  0.601E-03
  -0.289  0.380E-03  0.380E-03
  -0.279  0.345E-04  0.345E-04
  -0.269  0.356E-04  0.356E-04
  -0.259  0.642E-04  0.642E-04
  -0.249  0.745E-04  0.745E-04
  -0.239  0.848E-04  0.848E-04
  -0.229  0.178E-03  0.178E-03
  -0.219  0.293E-04  0.293E-04
  -0.209  0.295E-04  0.295E-04
  -0.199  0.298E-04  0.298E-04
  -0.189  0.300E-04  0.300E-04
  -0.179  0.302E-04  0.302E-04
  -0.169  0.303E-04  0.303E-04
  -0.159  0.305E-04  0.305E-04
  -0.149  0.305E-04  0.305E-04
  -0.139  0.306E-04  0.306E-04
  -0.129  0.306E-04  0.306E-04
  -0.119  0.307E-04  0.307E-04
  -0.109  0.356E-04  0.356E-04
  -0.099  0.585E-04  0.585E-04
  -0.089  0.113E-03  0.113E-03
  -0.079  0.305E-03  0.305E-03
  -0.069  0.140E-02  0.140E-02
  -0.059  0.312E-02  0.312E-02
  -0.049  0.567E-03  0.567E-03
  -0.039  0.262E-03  0.262E-03
  -0.029  0.191E-03  0.191E-03
  -0.019  0.160E-03  0.160E-03
  -0.009  0.125E-03  0.125E-03
   0.001  0.852E-04  0.852E-04
   0.011  0.530E-04  0.530E-04
   0.021  0.412E-04  0.412E-04
   0.031  0.369E-04  0.369E-04
   0.041  0.321E-04  0.321E-04
   0.051  0.392E-04  0.392E-04
   0.061  0.574E-04  0.574E-04
   0.071  0.915E-04  0.915E-04
   0.081  0.342E-04  0.342E-04
   0.091  0.210E-04  0.210E-04
   0.101  0.221E-04  0.221E-04
   0.111  0.232E-04  0.232E-04
   0.121  0.243E-04  0.243E-04
   0.131  0.254E-04  0.254E-04
   0.141  0.265E-04  0.265E-04
   0.151  0.276E-04  0.276E-04
   0.161  0.286E-04  0.286E-04
   0.171  0.297E-04  0.297E-04
   0.181  0.307E-04  0.307E-04
   0.191  0.318E-04  0.318E-04
   0.201  0.328E-04  0.328E-04
   0.211  0.338E-04  0.338E-04
   0.221  0.348E-04  0.348E-04
   0.231  0.358E-04  0.358E-04
   0.241  0.368E-04  0.368E-04
   0.251  0.378E-04  0.378E-04
   0.261  0.388E-04  0.388E-04
   0.271  0.397E-04  0.397E-04
   0.281  0.407E-04  0.407E-04
   0.291  0.417E-04  0.417E-04
   0.301  0.426E-04  0.426E-04
   0.311  0.435E-04  0.435E-04
   0.321  0.445E-04  0.445E-04
   0.331  0.454E-04  0.454E-04
   0.341  0.463E-04  0.463E-04
   0.351  0.472E-04  0.472E-04
   0.361  0.481E-04  0.481E-04
   0.371  0.490E-04  0.490E-04
   0.381  0.553E-04  0.553E-04
   0.391  0.217E-03  0.217E-03
   0.401  0.601E-03  0.601E-03
   0.411  0.234E-03  0.234E-03
   0.421  0.238E-03  0.238E-03
   0.431  0.241E-03  0.241E-03
   0.441  0.488E-03  0.488E-03
   0.451  0.733E-03  0.733E-03
   0.461  0.970E-03  0.970E-03
   0.471  0.140E-02  0.140E-02
   0.481  0.178E-02  0.178E-02
   0.491  0.209E-02  0.209E-02
   0.501  0.231E-02  0.231E-02
   0.511  0.244E-02  0.244E-02
   0.521  0.254E-02  0.254E-02
   0.531  0.253E-02  0.253E-02
   0.541  0.269E-02  0.269E-02
   0.551  0.285E-02  0.285E-02
   0.561  0.288E-02  0.288E-02
   0.571  0.284E-02  0.284E-02
   0.581  0.298E-02  0.298E-02
   0.591  0.313E-02  0.313E-02
   0.601  0.335E-02  0.335E-02
   0.611  0.363E-02  0.363E-02
   0.621  0.357E-02  0.357E-02
   0.631  0.285E-02  0.285E-02
   0.641  0.290E-02  0.290E-02
   0.651  0.314E-02  0.314E-02
   0.661  0.325E-02  0.325E-02
   0.671  0.335E-02  0.335E-02
   0.681  0.344E-02  0.344E-02
   0.691  0.351E-02  0.351E-02
   0.701  0.357E-02  0.357E-02
   0.711  0.362E-02  0.362E-02
   0.721  0.366E-02  0.366E-02
   0.731  0.368E-02  0.368E-02
   0.741  0.370E-02  0.370E-02
   0.751  0.454E-02  0.454E-02
   0.761  0.446E-02  0.446E-02
   0.771  0.446E-02  0.446E-02
   0.781  0.454E-02  0.454E-02
   0.791  0.466E-02  0.466E-02
   0.801  0.442E-02  0.442E-02
   0.811  0.421E-02  0.421E-02
   0.821  0.421E-02  0.421E-02
   0.831  0.619E-02  0.619E-02
   0.841  0.510E-02  0.510E-02
   0.851  0.427E-02  0.427E-02
   0.861  0.369E-02  0.369E-02
   0.871  0.510E-02  0.510E-02
   0.881  0.686E-02  0.686E-02
   0.891  0.887E-02  0.887E-02
   0.901  0.682E-02  0.682E-02
   0.911  0.853E-02  0.853E-02
   0.921  0.931E-02  0.931E-02
   0.931  0.100E-01  0.100E-01
   0.941  0.106E-01  0.106E-01
   0.951  0.109E-01  0.109E-01
   0.961  0.110E-01  0.110E-01
   0.971  0.991E-02  0.991E-02
   0.981  0.961E-02  0.961E-02
   0.991  0.819E-02  0.819E-02
   1.001  0.913E-02  0.913E-02
   1.011  0.103E-01  0.103E-01
   1.021  0.117E-01  0.117E-01
   1.031  0.246E-01  0.246E-01
   1.041  0.838E-02  0.838E-02
   1.051  0.186E-01  0.186E-01
   1.061  0.156E-01  0.156E-01
   1.071  0.134E-01  0.134E-01
   1.081  0.121E-01  0.121E-01
   1.091  0.116E-01  0.116E-01
   1.101  0.114E-01  0.114E-01
   1.111  0.114E-01  0.114E-01
   1.121  0.117E-01  0.117E-01
   1.131  0.118E-01  0.118E-01
   1.141  0.239E-01  0.239E-01
   1.151  0.356E-01  0.356E-01
   1.161  0.451E-01  0.451E-01
   1.171  0.544E-01  0.544E-01
   1.181  0.595E-01  0.595E-01
   1.191  0.577E-01  0.577E-01
   1.201  0.568E-01  0.568E-01
   1.211  0.100E+00  0.100E+00
   1.221  0.145E+00  0.145E+00
   1.231  0.190E+00  0.190E+00
   1.241  0.153E+00  0.153E+00
   1.251  0.164E+00  0.164E+00
   1.261  0.190E+00  0.190E+00
   1.271  0.233E+00  0.233E+00
   1.281  0.293E+00  0.293E+00
   1.291  0.168E+00  0.168E+00
   1.301  0.182E+00  0.182E+00
   1.311  0.153E+00  0.153E+00
   1.321  0.128E+00  0.128E+00
   1.331  0.714E-01  0.714E-01
   1.341  0.593E-01  0.593E-01
   1.351  0.492E-01  0.492E-01
   1.361  0.453E-01  0.453E-01
   1.371  0.360E-01  0.360E-01
   1.381  0.277E-01  0.277E-01
   1.391  0.210E-01  0.210E-01
   1.401  0.156E-01  0.156E-01
   1.411  0.113E-01  0.113E-01
   1.421  0.798E-02  0.798E-02
   1.431  0.707E-02  0.707E-02
   1.441  0.592E-02  0.592E-02
   1.451  0.516E-02  0.516E-02
   1.461  0.477E-02  0.477E-02
   1.471  0.475E-02  0.475E-02
   1.481  0.495E-02  0.495E-02
   1.491  0.515E-02  0.515E-02
   1.501  0.536E-02  0.536E-02
   1.511  0.677E-02  0.677E-02
   1.521  0.101E-01  0.101E-01
   1.531  0.154E-01  0.154E-01
   1.541  0.562E-02  0.562E-02
   1.551  0.599E-02  0.599E-02
   1.561  0.411E-01  0.411E-01
   1.571  0.233E-01  0.233E-01
   1.581  0.162E-01  0.162E-01
   1.591  0.155E-01  0.155E-01
   1.601  0.149E-01  0.149E-01
   1.611  0.141E-01  0.141E-01
   1.621  0.127E-01  0.127E-01
   1.631  0.115E-01  0.115E-01
   1.641  0.102E-01  0.102E-01
   1.651  0.870E-02  0.870E-02
   1.661  0.730E-02  0.730E-02
   1.671  0.686E-02  0.686E-02
   1.681  0.772E-02  0.772E-02
   1.691  0.989E-02  0.989E-02
   1.701  0.131E-01  0.131E-01
   1.711  0.163E-01  0.163E-01
   1.721  0.195E-01  0.195E-01
   1.731  0.237E-01  0.237E-01
   1.741  0.284E-01  0.284E-01
   1.751  0.324E-01  0.324E-01
   1.761  0.355E-01  0.355E-01
   1.771  0.378E-01  0.378E-01
   1.781  0.104E+00  0.104E+00
   1.791  0.774E-01  0.774E-01
   1.801  0.555E-01  0.555E-01
   1.811  0.384E-01  0.384E-01
   1.821  0.262E-01  0.262E-01
   1.831  0.188E-01  0.188E-01
   1.841  0.140E-01  0.140E-01
   1.851  0.882E-02  0.882E-02
   1.861  0.431E-02  0.431E-02
   1.871  0.303E-02  0.303E-02
   1.881  0.197E-02  0.197E-02
   1.891  0.112E-02  0.112E-02
   1.901  0.479E-03  0.479E-03
   1.911  0.557E-04  0.557E-04
   1.921  0.000E+00  0.000E+00
