# E (eV)   ldos(E)   pdos(E)   
 -15.919  0.000E+00  0.000E+00
 -15.909  0.934E-01  0.934E-01
 -15.899  0.186E+00  0.186E+00
 -15.889  0.136E+00  0.136E+00
 -15.879  0.143E+00  0.143E+00
 -15.869  0.150E+00  0.150E+00
 -15.859  0.156E+00  0.156E+00
 -15.849  0.163E+00  0.163E+00
 -15.839  0.170E+00  0.170E+00
 -15.829  0.172E+00  0.172E+00
 -15.819  0.163E+00  0.163E+00
 -15.809  0.153E+00  0.153E+00
 -15.799  0.148E+00  0.148E+00
 -15.789  0.152E+00  0.152E+00
 -15.779  0.155E+00  0.155E+00
 -15.769  0.159E+00  0.159E+00
 -15.759  0.163E+00  0.163E+00
 -15.749  0.167E+00  0.167E+00
 -15.739  0.171E+00  0.171E+00
 -15.729  0.175E+00  0.175E+00
 -15.719  0.179E+00  0.179E+00
 -15.709  0.357E+00  0.357E+00
 -15.699  0.291E+00  0.291E+00
 -15.689  0.221E+00  0.221E+00
 -15.679  0.148E+00  0.148E+00
 -15.669  0.792E-01  0.792E-01
 -15.659  0.694E-01  0.694E-01
 -15.649  0.593E-01  0.593E-01
 -15.639  0.534E-01  0.534E-01
 -15.629  0.538E-01  0.538E-01
 -15.619  0.543E-01  0.543E-01
 -15.609  0.549E-01  0.549E-01
 -15.599  0.555E-01  0.555E-01
 -15.589  0.631E-01  0.631E-01
 -15.579  0.758E-01  0.758E-01
 -15.569  0.889E-01  0.889E-01
 -15.559  0.227E+00  0.227E+00
 -15.549  0.521E+00  0.521E+00
 -15.539  0.963E-01  0.963E-01
 -15.529  0.962E-01  0.962E-01
 -15.519  0.962E-01  0.962E-01
 -15.509  0.965E-01  0.965E-01
 -15.499  0.969E-01  0.969E-01
 -15.489  0.974E-01  0.974E-01
 -15.479  0.982E-01  0.982E-01
 -15.469  0.992E-01  0.992E-01
 -15.459  0.100E+00  0.100E+00
 -15.449  0.102E+00  0.102E+00
 -15.439  0.104E+00  0.104E+00
 -15.429  0.105E+00  0.105E+00
 -15.419  0.108E+00  0.108E+00
 -15.409  0.110E+00  0.110E+00
 -15.399  0.112E+00  0.112E+00
 -15.389  0.115E+00  0.115E+00
 -15.379  0.118E+00  0.118E+00
 -15.369  0.121E+00  0.121E+00
 -15.359  0.160E+00  0.160E+00
 -15.349  0.152E+00  0.152E+00
 -15.339  0.144E+00  0.144E+00
 -15.329  0.137E+00  0.137E+00
 -15.319  0.132E+00  0.132E+00
 -15.309  0.128E+00  0.128E+00
 -15.299  0.125E+00  0.125E+00
 -15.289  0.127E+00  0.127E+00
 -15.279  0.129E+00  0.129E+00
 -15.269  0.131E+00  0.131E+00
 -15.259  0.133E+00  0.133E+00
 -15.249  0.135E+00  0.135E+00
 -15.239  0.137E+00  0.137E+00
 -15.229  0.139E+00  0.139E+00
 -15.219  0.141E+00  0.141E+00
 -15.209  0.143E+00  0.143E+00
 -15.199  0.120E+00  0.120E+00
 -15.189  0.121E+00  0.121E+00
 -15.179  0.123E+00  0.123E+00
 -15.169  0.124E+00  0.124E+00
 -15.159  0.126E+00  0.126E+00
 -15.149  0.128E+00  0.128E+00
 -15.139  0.122E+00  0.122E+00
 -15.129  0.112E+00  0.112E+00
 -15.119  0.101E+00  0.101E+00
 -15.109  0.968E-01  0.968E-01
 -15.099  0.943E-01  0.943E-01
 -15.089  0.918E-01  0.918E-01
 -15.079  0.891E-01  0.891E-01
 -15.069  0.863E-01  0.863E-01
 -15.059  0.835E-01  0.835E-01
 -15.049  0.805E-01  0.805E-01
 -15.039  0.774E-01  0.774E-01
 -15.029  0.104E+00  0.104E+00
 -15.019  0.137E+00  0.137E+00
 -15.009  0.135E+00  0.135E+00
 -14.999  0.132E+00  0.132E+00
 -14.989  0.127E+00  0.127E+00
 -14.979  0.121E+00  0.121E+00
 -14.969  0.114E+00  0.114E+00
 -14.959  0.106E+00  0.106E+00
 -14.949  0.972E-01  0.972E-01
 -14.939  0.869E-01  0.869E-01
 -14.929  0.755E-01  0.755E-01
 -14.919  0.629E-01  0.629E-01
 -14.909  0.493E-01  0.493E-01
 -14.899  0.420E-01  0.420E-01
 -14.889  0.411E-01  0.411E-01
 -14.879  0.403E-01  0.403E-01
 -14.869  0.406E-01  0.406E-01
 -14.859  0.126E+00  0.126E+00
 -14.849  0.964E-01  0.964E-01
 -14.839  0.725E-01  0.725E-01
 -14.829  0.542E-01  0.542E-01
 -14.819  0.414E-01  0.414E-01
 -14.809  0.341E-01  0.341E-01
 -14.799  0.447E-01  0.447E-01
 -14.789  0.589E-01  0.589E-01
 -14.779  0.727E-01  0.727E-01
 -14.769  0.860E-01  0.860E-01
 -14.759  0.989E-01  0.989E-01
 -14.749  0.111E+00  0.111E+00
 -14.739  0.123E+00  0.123E+00
 -14.729  0.135E+00  0.135E+00
 -14.719  0.146E+00  0.146E+00
 -14.709  0.157E+00  0.157E+00
 -14.699  0.880E-01  0.880E-01
 -14.689  0.790E-01  0.790E-01
 -14.679  0.790E-01  0.790E-01
 -14.669  0.791E-01  0.791E-01
 -14.659  0.791E-01  0.791E-01
 -14.649  0.791E-01  0.791E-01
 -14.639  0.791E-01  0.791E-01
 -14.629  0.792E-01  0.792E-01
 -14.619  0.792E-01  0.792E-01
 -14.609  0.792E-01  0.792E-01
 -14.599  0.793E-01  0.793E-01
 -14.589  0.793E-01  0.793E-01
 -14.579  0.794E-01  0.794E-01
 -14.569  0.794E-01  0.794E-01
 -14.559  0.842E-01  0.842E-01
 -14.549  0.156E+00  0.156E+00
 -14.539  0.313E+00  0.313E+00
 -14.529  0.855E-01  0.855E-01
 -14.519  0.853E-01  0.853E-01
 -14.509  0.851E-01  0.851E-01
 -14.499  0.850E-01  0.850E-01
 -14.489  0.847E-01  0.847E-01
 -14.479  0.845E-01  0.845E-01
 -14.469  0.843E-01  0.843E-01
 -14.459  0.841E-01  0.841E-01
 -14.449  0.848E-01  0.848E-01
 -14.439  0.857E-01  0.857E-01
 -14.429  0.867E-01  0.867E-01
 -14.419  0.877E-01  0.877E-01
 -14.409  0.888E-01  0.888E-01
 -14.399  0.898E-01  0.898E-01
 -14.389  0.909E-01  0.909E-01
 -14.379  0.920E-01  0.920E-01
 -14.369  0.931E-01  0.931E-01
 -14.359  0.942E-01  0.942E-01
 -14.349  0.953E-01  0.953E-01
 -14.339  0.965E-01  0.965E-01
 -14.329  0.968E-01  0.968E-01
 -14.319  0.971E-01  0.971E-01
 -14.309  0.975E-01  0.975E-01
 -14.299  0.984E-01  0.984E-01
 -14.289  0.993E-01  0.993E-01
 -14.279  0.100E+00  0.100E+00
 -14.269  0.101E+00  0.101E+00
 -14.259  0.101E+00  0.101E+00
 -14.249  0.102E+00  0.102E+00
 -14.239  0.103E+00  0.103E+00
 -14.229  0.103E+00  0.103E+00
 -14.219  0.123E+00  0.123E+00
 -14.209  0.113E+00  0.113E+00
 -14.199  0.980E-01  0.980E-01
 -14.189  0.790E-01  0.790E-01
 -14.179  0.556E-01  0.556E-01
 -14.169  0.296E-01  0.296E-01
 -14.159  0.404E-01  0.404E-01
 -14.149  0.673E-01  0.673E-01
 -14.139  0.750E-01  0.750E-01
 -14.129  0.738E-01  0.738E-01
 -14.119  0.722E-01  0.722E-01
 -14.109  0.703E-01  0.703E-01
 -14.099  0.681E-01  0.681E-01
 -14.089  0.656E-01  0.656E-01
 -14.079  0.627E-01  0.627E-01
 -14.069  0.323E-01  0.323E-01
 -14.059  0.331E-01  0.331E-01
 -14.049  0.338E-01  0.338E-01
 -14.039  0.346E-01  0.346E-01
 -14.029  0.352E-01  0.352E-01
 -14.019  0.358E-01  0.358E-01
 -14.009  0.364E-01  0.364E-01
 -13.999  0.368E-01  0.368E-01
 -13.989  0.373E-01  0.373E-01
 -13.979  0.377E-01  0.377E-01
 -13.969  0.380E-01  0.380E-01
 -13.959  0.383E-01  0.383E-01
 -13.949  0.385E-01  0.385E-01
 -13.939  0.387E-01  0.387E-01
 -13.929  0.389E-01  0.389E-01
 -13.919  0.930E-01  0.930E-01
 -13.909  0.940E-01  0.940E-01
 -13.899  0.954E-01  0.954E-01
 -13.889  0.972E-01  0.972E-01
 -13.879  0.993E-01  0.993E-01
 -13.869  0.102E+00  0.102E+00
 -13.859  0.847E-01  0.847E-01
 -13.849  0.547E-01  0.547E-01
 -13.839  0.391E-01  0.391E-01
 -13.829  0.460E-01  0.460E-01
 -13.819  0.533E-01  0.533E-01
 -13.809  0.608E-01  0.608E-01
 -13.799  0.686E-01  0.686E-01
 -13.789  0.767E-01  0.767E-01
 -13.779  0.851E-01  0.851E-01
 -13.769  0.195E+00  0.195E+00
 -13.759  0.103E+00  0.103E+00
 -13.749  0.740E-01  0.740E-01
 -13.739  0.654E-01  0.654E-01
 -13.729  0.574E-01  0.574E-01
 -13.719  0.501E-01  0.501E-01
 -13.709  0.449E-01  0.449E-01
 -13.699  0.403E-01  0.403E-01
 -13.689  0.366E-01  0.366E-01
 -13.679  0.339E-01  0.339E-01
 -13.669  0.344E-01  0.344E-01
 -13.659  0.349E-01  0.349E-01
 -13.649  0.355E-01  0.355E-01
 -13.639  0.371E-01  0.371E-01
 -13.629  0.392E-01  0.392E-01
 -13.619  0.421E-01  0.421E-01
 -13.609  0.451E-01  0.451E-01
 -13.599  0.484E-01  0.484E-01
 -13.589  0.518E-01  0.518E-01
 -13.579  0.555E-01  0.555E-01
 -13.569  0.593E-01  0.593E-01
 -13.559  0.634E-01  0.634E-01
 -13.549  0.676E-01  0.676E-01
 -13.539  0.720E-01  0.720E-01
 -13.529  0.767E-01  0.767E-01
 -13.519  0.815E-01  0.815E-01
 -13.509  0.681E-01  0.681E-01
 -13.499  0.683E-01  0.683E-01
 -13.489  0.694E-01  0.694E-01
 -13.479  0.108E+00  0.108E+00
 -13.469  0.669E-01  0.669E-01
 -13.459  0.640E-01  0.640E-01
 -13.449  0.633E-01  0.633E-01
 -13.439  0.624E-01  0.624E-01
 -13.429  0.612E-01  0.612E-01
 -13.419  0.592E-01  0.592E-01
 -13.409  0.572E-01  0.572E-01
 -13.399  0.554E-01  0.554E-01
 -13.389  0.536E-01  0.536E-01
 -13.379  0.520E-01  0.520E-01
 -13.369  0.505E-01  0.505E-01
 -13.359  0.491E-01  0.491E-01
 -13.349  0.479E-01  0.479E-01
 -13.339  0.469E-01  0.469E-01
 -13.329  0.468E-01  0.468E-01
 -13.319  0.467E-01  0.467E-01
 -13.309  0.466E-01  0.466E-01
 -13.299  0.465E-01  0.465E-01
 -13.289  0.464E-01  0.464E-01
 -13.279  0.463E-01  0.463E-01
 -13.269  0.566E-01  0.566E-01
 -13.259  0.571E-01  0.571E-01
 -13.249  0.576E-01  0.576E-01
 -13.239  0.580E-01  0.580E-01
 -13.229  0.582E-01  0.582E-01
 -13.219  0.584E-01  0.584E-01
 -13.209  0.584E-01  0.584E-01
 -13.199  0.584E-01  0.584E-01
 -13.189  0.583E-01  0.583E-01
 -13.179  0.580E-01  0.580E-01
 -13.169  0.577E-01  0.577E-01
 -13.159  0.573E-01  0.573E-01
 -13.149  0.569E-01  0.569E-01
 -13.139  0.675E-01  0.675E-01
 -13.129  0.760E-01  0.760E-01
 -13.119  0.822E-01  0.822E-01
 -13.109  0.763E-01  0.763E-01
 -13.099  0.768E-01  0.768E-01
 -13.089  0.660E-01  0.660E-01
 -13.079  0.433E-01  0.433E-01
 -13.069  0.386E-01  0.386E-01
 -13.059  0.332E-01  0.332E-01
 -13.049  0.274E-01  0.274E-01
 -13.039  0.247E-01  0.247E-01
 -13.029  0.237E-01  0.237E-01
 -13.019  0.131E-02  0.131E-02
 -13.009  0.134E-02  0.134E-02
 -12.999  0.141E-02  0.141E-02
 -12.989  0.245E-02  0.245E-02
 -12.979  0.684E-02  0.684E-02
 -12.969  0.112E-01  0.112E-01
 -12.959  0.154E-01  0.154E-01
 -12.949  0.201E-01  0.201E-01
 -12.939  0.255E-01  0.255E-01
 -12.929  0.308E-01  0.308E-01
 -12.919  0.361E-01  0.361E-01
 -12.909  0.419E-01  0.419E-01
 -12.899  0.709E-01  0.709E-01
 -12.889  0.517E-01  0.517E-01
 -12.879  0.510E-01  0.510E-01
 -12.869  0.498E-01  0.498E-01
 -12.859  0.479E-01  0.479E-01
 -12.849  0.455E-01  0.455E-01
 -12.839  0.434E-01  0.434E-01
 -12.829  0.459E-01  0.459E-01
 -12.819  0.486E-01  0.486E-01
 -12.809  0.513E-01  0.513E-01
 -12.799  0.422E-01  0.422E-01
 -12.789  0.405E-01  0.405E-01
 -12.779  0.802E-01  0.802E-01
 -12.769  0.635E-01  0.635E-01
 -12.759  0.294E-01  0.294E-01
 -12.749  0.270E-01  0.270E-01
 -12.739  0.247E-01  0.247E-01
 -12.729  0.226E-01  0.226E-01
 -12.719  0.205E-01  0.205E-01
 -12.709  0.186E-01  0.186E-01
 -12.699  0.168E-01  0.168E-01
 -12.689  0.152E-01  0.152E-01
 -12.679  0.146E-01  0.146E-01
 -12.669  0.141E-01  0.141E-01
 -12.659  0.137E-01  0.137E-01
 -12.649  0.133E-01  0.133E-01
 -12.639  0.132E-01  0.132E-01
 -12.629  0.156E-01  0.156E-01
 -12.619  0.181E-01  0.181E-01
 -12.609  0.203E-01  0.203E-01
 -12.599  0.222E-01  0.222E-01
 -12.589  0.239E-01  0.239E-01
 -12.579  0.253E-01  0.253E-01
 -12.569  0.125E-01  0.125E-01
 -12.559  0.125E-01  0.125E-01
 -12.549  0.125E-01  0.125E-01
 -12.539  0.125E-01  0.125E-01
 -12.529  0.126E-01  0.126E-01
 -12.519  0.125E-01  0.125E-01
 -12.509  0.120E-01  0.120E-01
 -12.499  0.108E-01  0.108E-01
 -12.489  0.972E-02  0.972E-02
 -12.479  0.867E-02  0.867E-02
 -12.469  0.767E-02  0.767E-02
 -12.459  0.671E-02  0.671E-02
 -12.449  0.580E-02  0.580E-02
 -12.439  0.494E-02  0.494E-02
 -12.429  0.426E-02  0.426E-02
 -12.419  0.398E-02  0.398E-02
 -12.409  0.372E-02  0.372E-02
 -12.399  0.347E-02  0.347E-02
 -12.389  0.323E-02  0.323E-02
 -12.379  0.302E-02  0.302E-02
 -12.369  0.282E-02  0.282E-02
 -12.359  0.263E-02  0.263E-02
 -12.349  0.319E-02  0.319E-02
 -12.339  0.212E-02  0.212E-02
 -12.329  0.126E-02  0.126E-02
 -12.319  0.631E-03  0.631E-03
 -12.309  0.215E-03  0.215E-03
 -12.299  0.178E-04  0.178E-04
 -12.289  0.000E+00  0.000E+00
 -12.279  0.000E+00  0.000E+00
 -12.269  0.000E+00  0.000E+00
 -12.259  0.000E+00  0.000E+00
 -12.249  0.000E+00  0.000E+00
 -12.239  0.000E+00  0.000E+00
 -12.229  0.000E+00  0.000E+00
 -12.219  0.000E+00  0.000E+00
 -12.209  0.000E+00  0.000E+00
 -12.199  0.000E+00  0.000E+00
 -12.189  0.000E+00  0.000E+00
 -12.179  0.000E+00  0.000E+00
 -12.169  0.000E+00  0.000E+00
 -12.159  0.000E+00  0.000E+00
 -12.149  0.000E+00  0.000E+00
 -12.139  0.000E+00  0.000E+00
 -12.129  0.000E+00  0.000E+00
 -12.119  0.000E+00  0.000E+00
 -12.109  0.000E+00  0.000E+00
 -12.099  0.000E+00  0.000E+00
 -12.089  0.000E+00  0.000E+00
 -12.079  0.000E+00  0.000E+00
 -12.069  0.000E+00  0.000E+00
 -12.059  0.000E+00  0.000E+00
 -12.049  0.000E+00  0.000E+00
 -12.039  0.000E+00  0.000E+00
 -12.029  0.000E+00  0.000E+00
 -12.019  0.000E+00  0.000E+00
 -12.009  0.000E+00  0.000E+00
 -11.999  0.424E-04  0.424E-04
 -11.989  0.120E-03  0.120E-03
 -11.979  0.188E-03  0.188E-03
 -11.969  0.114E-03  0.114E-03
 -11.959  0.113E-03  0.113E-03
 -11.949  0.112E-03  0.112E-03
 -11.939  0.110E-03  0.110E-03
 -11.929  0.107E-03  0.107E-03
 -11.919  0.104E-03  0.104E-03
 -11.909  0.100E-03  0.100E-03
 -11.899  0.909E-04  0.909E-04
 -11.889  0.804E-04  0.804E-04
 -11.879  0.713E-04  0.713E-04
 -11.869  0.657E-04  0.657E-04
 -11.859  0.630E-04  0.630E-04
 -11.849  0.602E-04  0.602E-04
 -11.839  0.573E-04  0.573E-04
 -11.829  0.543E-04  0.543E-04
 -11.819  0.513E-04  0.513E-04
 -11.809  0.482E-04  0.482E-04
 -11.799  0.449E-04  0.449E-04
 -11.789  0.416E-04  0.416E-04
 -11.779  0.382E-04  0.382E-04
 -11.769  0.670E-04  0.670E-04
 -11.759  0.527E-04  0.527E-04
 -11.749  0.399E-04  0.399E-04
 -11.739  0.284E-04  0.284E-04
 -11.729  0.184E-04  0.184E-04
 -11.719  0.108E-04  0.108E-04
 -11.709  0.906E-05  0.906E-05
 -11.699  0.759E-05  0.759E-05
 -11.689  0.713E-05  0.713E-05
 -11.679  0.675E-05  0.675E-05
 -11.669  0.642E-05  0.642E-05
 -11.659  0.617E-05  0.617E-05
 -11.649  0.598E-05  0.598E-05
 -11.639  0.585E-05  0.585E-05
 -11.629  0.591E-05  0.591E-05
 -11.619  0.650E-05  0.650E-05
 -11.609  0.816E-05  0.816E-05
 -11.599  0.136E-04  0.136E-04
 -11.589  0.227E-04  0.227E-04
 -11.579  0.686E-05  0.686E-05
 -11.569  0.707E-05  0.707E-05
 -11.559  0.731E-05  0.731E-05
 -11.549  0.760E-05  0.760E-05
 -11.539  0.793E-05  0.793E-05
 -11.529  0.829E-05  0.829E-05
 -11.519  0.869E-05  0.869E-05
 -11.509  0.913E-05  0.913E-05
 -11.499  0.961E-05  0.961E-05
 -11.489  0.101E-04  0.101E-04
 -11.479  0.107E-04  0.107E-04
 -11.469  0.113E-04  0.113E-04
 -11.459  0.120E-04  0.120E-04
 -11.449  0.128E-04  0.128E-04
 -11.439  0.136E-04  0.136E-04
 -11.429  0.144E-04  0.144E-04
 -11.419  0.153E-04  0.153E-04
 -11.409  0.163E-04  0.163E-04
 -11.399  0.173E-04  0.173E-04
 -11.389  0.183E-04  0.183E-04
 -11.379  0.294E-04  0.294E-04
 -11.369  0.310E-04  0.310E-04
 -11.359  0.319E-04  0.319E-04
 -11.349  0.322E-04  0.322E-04
 -11.339  0.319E-04  0.319E-04
 -11.329  0.311E-04  0.311E-04
 -11.319  0.297E-04  0.297E-04
 -11.309  0.302E-04  0.302E-04
 -11.299  0.313E-04  0.313E-04
 -11.289  0.324E-04  0.324E-04
 -11.279  0.335E-04  0.335E-04
 -11.269  0.347E-04  0.347E-04
 -11.259  0.359E-04  0.359E-04
 -11.249  0.371E-04  0.371E-04
 -11.239  0.383E-04  0.383E-04
 -11.229  0.396E-04  0.396E-04
 -11.219  0.409E-04  0.409E-04
 -11.209  0.423E-04  0.423E-04
 -11.199  0.301E-04  0.301E-04
 -11.189  0.296E-04  0.296E-04
 -11.179  0.292E-04  0.292E-04
 -11.169  0.287E-04  0.287E-04
 -11.159  0.283E-04  0.283E-04
 -11.149  0.278E-04  0.278E-04
 -11.139  0.271E-04  0.271E-04
 -11.129  0.356E-04  0.356E-04
 -11.119  0.477E-04  0.477E-04
 -11.109  0.609E-04  0.609E-04
 -11.099  0.675E-04  0.675E-04
 -11.089  0.721E-04  0.721E-04
 -11.079  0.769E-04  0.769E-04
 -11.069  0.818E-04  0.818E-04
 -11.059  0.869E-04  0.869E-04
 -11.049  0.921E-04  0.921E-04
 -11.039  0.974E-04  0.974E-04
 -11.029  0.103E-03  0.103E-03
 -11.019  0.115E-03  0.115E-03
 -11.009  0.226E-03  0.226E-03
 -10.999  0.212E-03  0.212E-03
 -10.989  0.198E-03  0.198E-03
 -10.979  0.184E-03  0.184E-03
 -10.969  0.171E-03  0.171E-03
 -10.959  0.159E-03  0.159E-03
 -10.949  0.147E-03  0.147E-03
 -10.939  0.135E-03  0.135E-03
 -10.929  0.124E-03  0.124E-03
 -10.919  0.114E-03  0.114E-03
 -10.909  0.104E-03  0.104E-03
 -10.899  0.948E-04  0.948E-04
 -10.889  0.861E-04  0.861E-04
 -10.879  0.797E-04  0.797E-04
 -10.869  0.764E-04  0.764E-04
 -10.859  0.737E-04  0.737E-04
 -10.849  0.717E-04  0.717E-04
 -10.839  0.741E-04  0.741E-04
 -10.829  0.219E-03  0.219E-03
 -10.819  0.172E-03  0.172E-03
 -10.809  0.135E-03  0.135E-03
 -10.799  0.107E-03  0.107E-03
 -10.789  0.877E-04  0.877E-04
 -10.779  0.805E-04  0.805E-04
 -10.769  0.107E-03  0.107E-03
 -10.759  0.138E-03  0.138E-03
 -10.749  0.167E-03  0.167E-03
 -10.739  0.193E-03  0.193E-03
 -10.729  0.216E-03  0.216E-03
 -10.719  0.238E-03  0.238E-03
 -10.709  0.256E-03  0.256E-03
 -10.699  0.272E-03  0.272E-03
 -10.689  0.286E-03  0.286E-03
 -10.679  0.297E-03  0.297E-03
 -10.669  0.205E-03  0.205E-03
 -10.659  0.208E-03  0.208E-03
 -10.649  0.210E-03  0.210E-03
 -10.639  0.212E-03  0.212E-03
 -10.629  0.214E-03  0.214E-03
 -10.619  0.216E-03  0.216E-03
 -10.609  0.217E-03  0.217E-03
 -10.599  0.218E-03  0.218E-03
 -10.589  0.219E-03  0.219E-03
 -10.579  0.220E-03  0.220E-03
 -10.569  0.220E-03  0.220E-03
 -10.559  0.221E-03  0.221E-03
 -10.549  0.221E-03  0.221E-03
 -10.539  0.221E-03  0.221E-03
 -10.529  0.221E-03  0.221E-03
 -10.519  0.220E-03  0.220E-03
 -10.509  0.257E-03  0.257E-03
 -10.499  0.706E-03  0.706E-03
 -10.489  0.116E-02  0.116E-02
 -10.479  0.252E-03  0.252E-03
 -10.469  0.253E-03  0.253E-03
 -10.459  0.254E-03  0.254E-03
 -10.449  0.255E-03  0.255E-03
 -10.439  0.256E-03  0.256E-03
 -10.429  0.257E-03  0.257E-03
 -10.419  0.258E-03  0.258E-03
 -10.409  0.262E-03  0.262E-03
 -10.399  0.266E-03  0.266E-03
 -10.389  0.270E-03  0.270E-03
 -10.379  0.274E-03  0.274E-03
 -10.369  0.279E-03  0.279E-03
 -10.359  0.283E-03  0.283E-03
 -10.349  0.287E-03  0.287E-03
 -10.339  0.291E-03  0.291E-03
 -10.329  0.295E-03  0.295E-03
 -10.319  0.298E-03  0.298E-03
 -10.309  0.302E-03  0.302E-03
 -10.299  0.311E-03  0.311E-03
 -10.289  0.320E-03  0.320E-03
 -10.279  0.329E-03  0.329E-03
 -10.269  0.337E-03  0.337E-03
 -10.259  0.345E-03  0.345E-03
 -10.249  0.352E-03  0.352E-03
 -10.239  0.358E-03  0.358E-03
 -10.229  0.364E-03  0.364E-03
 -10.219  0.369E-03  0.369E-03
 -10.209  0.374E-03  0.374E-03
 -10.199  0.378E-03  0.378E-03
 -10.189  0.382E-03  0.382E-03
 -10.179  0.398E-03  0.398E-03
 -10.169  0.415E-03  0.415E-03
 -10.159  0.432E-03  0.432E-03
 -10.149  0.450E-03  0.450E-03
 -10.139  0.668E-03  0.668E-03
 -10.129  0.180E-03  0.180E-03
 -10.119  0.194E-03  0.194E-03
 -10.109  0.225E-03  0.225E-03
 -10.099  0.256E-03  0.256E-03
 -10.089  0.270E-03  0.270E-03
 -10.079  0.158E-03  0.158E-03
 -10.069  0.170E-03  0.170E-03
 -10.059  0.179E-03  0.179E-03
 -10.049  0.474E-03  0.474E-03
 -10.039  0.185E-02  0.185E-02
 -10.029  0.317E-02  0.317E-02
 -10.019  0.444E-02  0.444E-02
 -10.009  0.565E-02  0.565E-02
  -9.999  0.681E-02  0.681E-02
  -9.989  0.791E-02  0.791E-02
  -9.979  0.896E-02  0.896E-02
  -9.969  0.996E-02  0.996E-02
  -9.959  0.109E-01  0.109E-01
  -9.949  0.137E-01  0.137E-01
  -9.939  0.248E-01  0.248E-01
  -9.929  0.418E-01  0.418E-01
  -9.919  0.648E-01  0.648E-01
  -9.909  0.936E-01  0.936E-01
  -9.899  0.128E+00  0.128E+00
  -9.889  0.166E+00  0.166E+00
  -9.879  0.157E+00  0.157E+00
  -9.869  0.144E+00  0.144E+00
  -9.859  0.132E+00  0.132E+00
  -9.849  0.119E+00  0.119E+00
  -9.839  0.105E+00  0.105E+00
  -9.829  0.915E-01  0.915E-01
  -9.819  0.773E-01  0.773E-01
  -9.809  0.626E-01  0.626E-01
  -9.799  0.476E-01  0.476E-01
  -9.789  0.323E-01  0.323E-01
  -9.779  0.244E-01  0.244E-01
  -9.769  0.273E-01  0.273E-01
  -9.759  0.292E-01  0.292E-01
  -9.749  0.299E-01  0.299E-01
  -9.739  0.217E+00  0.217E+00
  -9.729  0.204E+00  0.204E+00
  -9.719  0.178E+00  0.178E+00
  -9.709  0.142E+00  0.142E+00
  -9.699  0.113E+00  0.113E+00
  -9.689  0.841E-01  0.841E-01
  -9.679  0.846E-01  0.846E-01
  -9.669  0.851E-01  0.851E-01
  -9.659  0.869E-01  0.869E-01
  -9.649  0.894E-01  0.894E-01
  -9.639  0.961E-01  0.961E-01
  -9.629  0.104E+00  0.104E+00
  -9.619  0.112E+00  0.112E+00
  -9.609  0.121E+00  0.121E+00
  -9.599  0.129E+00  0.129E+00
  -9.589  0.137E+00  0.137E+00
  -9.579  0.144E+00  0.144E+00
  -9.569  0.150E+00  0.150E+00
  -9.559  0.185E+00  0.185E+00
  -9.549  0.227E+00  0.227E+00
  -9.539  0.273E+00  0.273E+00
  -9.529  0.322E+00  0.322E+00
  -9.519  0.277E+00  0.277E+00
  -9.509  0.288E+00  0.288E+00
  -9.499  0.291E+00  0.291E+00
  -9.489  0.254E+00  0.254E+00
  -9.479  0.227E+00  0.227E+00
  -9.469  0.195E+00  0.195E+00
  -9.459  0.158E+00  0.158E+00
  -9.449  0.132E+00  0.132E+00
  -9.439  0.119E+00  0.119E+00
  -9.429  0.106E+00  0.106E+00
  -9.419  0.948E-01  0.948E-01
  -9.409  0.849E-01  0.849E-01
  -9.399  0.763E-01  0.763E-01
  -9.389  0.689E-01  0.689E-01
  -9.379  0.704E-01  0.704E-01
  -9.369  0.752E-01  0.752E-01
  -9.359  0.810E-01  0.810E-01
  -9.349  0.879E-01  0.879E-01
  -9.339  0.981E-01  0.981E-01
  -9.329  0.119E+00  0.119E+00
  -9.319  0.141E+00  0.141E+00
  -9.309  0.163E+00  0.163E+00
  -9.299  0.187E+00  0.187E+00
  -9.289  0.886E+00  0.886E+00
  -9.279  0.645E+00  0.645E+00
  -9.269  0.429E+00  0.429E+00
  -9.259  0.301E+00  0.301E+00
  -9.249  0.225E+00  0.225E+00
  -9.239  0.143E+00  0.143E+00
  -9.229  0.102E+00  0.102E+00
  -9.219  0.102E+00  0.102E+00
  -9.209  0.102E+00  0.102E+00
  -9.199  0.101E+00  0.101E+00
  -9.189  0.107E+00  0.107E+00
  -9.179  0.122E+00  0.122E+00
  -9.169  0.138E+00  0.138E+00
  -9.159  0.154E+00  0.154E+00
  -9.149  0.171E+00  0.171E+00
  -9.139  0.188E+00  0.188E+00
  -9.129  0.207E+00  0.207E+00
  -9.119  0.196E+00  0.196E+00
  -9.109  0.181E+00  0.181E+00
  -9.099  0.167E+00  0.167E+00
  -9.089  0.153E+00  0.153E+00
  -9.079  0.141E+00  0.141E+00
  -9.069  0.130E+00  0.130E+00
  -9.059  0.120E+00  0.120E+00
  -9.049  0.407E+00  0.407E+00
  -9.039  0.136E+00  0.136E+00
  -9.029  0.528E-01  0.528E-01
  -9.019  0.518E-01  0.518E-01
  -9.009  0.511E-01  0.511E-01
  -8.999  0.506E-01  0.506E-01
  -8.989  0.503E-01  0.503E-01
  -8.979  0.503E-01  0.503E-01
  -8.969  0.505E-01  0.505E-01
  -8.959  0.510E-01  0.510E-01
  -8.949  0.517E-01  0.517E-01
  -8.939  0.526E-01  0.526E-01
  -8.929  0.102E+00  0.102E+00
  -8.919  0.980E-01  0.980E-01
  -8.909  0.937E-01  0.937E-01
  -8.899  0.896E-01  0.896E-01
  -8.889  0.856E-01  0.856E-01
  -8.879  0.817E-01  0.817E-01
  -8.869  0.780E-01  0.780E-01
  -8.859  0.745E-01  0.745E-01
  -8.849  0.147E+00  0.147E+00
  -8.839  0.136E+00  0.136E+00
  -8.829  0.125E+00  0.125E+00
  -8.819  0.114E+00  0.114E+00
  -8.809  0.104E+00  0.104E+00
  -8.799  0.933E-01  0.933E-01
  -8.789  0.833E-01  0.833E-01
  -8.779  0.735E-01  0.735E-01
  -8.769  0.639E-01  0.639E-01
  -8.759  0.546E-01  0.546E-01
  -8.749  0.456E-01  0.456E-01
  -8.739  0.368E-01  0.368E-01
  -8.729  0.298E-01  0.298E-01
  -8.719  0.234E-01  0.234E-01
  -8.709  0.177E-01  0.177E-01
  -8.699  0.412E-01  0.412E-01
  -8.689  0.645E-01  0.645E-01
  -8.679  0.742E-01  0.742E-01
  -8.669  0.713E-01  0.713E-01
  -8.659  0.557E-01  0.557E-01
  -8.649  0.293E-01  0.293E-01
  -8.639  0.276E-01  0.276E-01
  -8.629  0.321E-01  0.321E-01
  -8.619  0.350E-01  0.350E-01
  -8.609  0.358E-01  0.358E-01
  -8.599  0.342E-01  0.342E-01
  -8.589  0.353E-01  0.353E-01
  -8.579  0.384E-01  0.384E-01
  -8.569  0.414E-01  0.414E-01
  -8.559  0.444E-01  0.444E-01
  -8.549  0.473E-01  0.473E-01
  -8.539  0.501E-01  0.501E-01
  -8.529  0.528E-01  0.528E-01
  -8.519  0.555E-01  0.555E-01
  -8.509  0.582E-01  0.582E-01
  -8.499  0.607E-01  0.607E-01
  -8.489  0.633E-01  0.633E-01
  -8.479  0.662E-01  0.662E-01
  -8.469  0.696E-01  0.696E-01
  -8.459  0.730E-01  0.730E-01
  -8.449  0.764E-01  0.764E-01
  -8.439  0.799E-01  0.799E-01
  -8.429  0.834E-01  0.834E-01
  -8.419  0.870E-01  0.870E-01
  -8.409  0.906E-01  0.906E-01
  -8.399  0.942E-01  0.942E-01
  -8.389  0.979E-01  0.979E-01
  -8.379  0.649E-01  0.649E-01
  -8.369  0.638E-01  0.638E-01
  -8.359  0.864E-01  0.864E-01
  -8.349  0.641E-01  0.641E-01
  -8.339  0.555E-01  0.555E-01
  -8.329  0.481E-01  0.481E-01
  -8.319  0.419E-01  0.419E-01
  -8.309  0.369E-01  0.369E-01
  -8.299  0.332E-01  0.332E-01
  -8.289  0.354E-01  0.354E-01
  -8.279  0.944E-01  0.944E-01
  -8.269  0.309E-01  0.309E-01
  -8.259  0.299E-01  0.299E-01
  -8.249  0.291E-01  0.291E-01
  -8.239  0.285E-01  0.285E-01
  -8.229  0.283E-01  0.283E-01
  -8.219  0.283E-01  0.283E-01
  -8.209  0.287E-01  0.287E-01
  -8.199  0.290E-01  0.290E-01
  -8.189  0.294E-01  0.294E-01
  -8.179  0.297E-01  0.297E-01
  -8.169  0.286E-01  0.286E-01
  -8.159  0.293E-01  0.293E-01
  -8.149  0.303E-01  0.303E-01
  -8.139  0.313E-01  0.313E-01
  -8.129  0.325E-01  0.325E-01
  -8.119  0.339E-01  0.339E-01
  -8.109  0.353E-01  0.353E-01
  -8.099  0.370E-01  0.370E-01
  -8.089  0.387E-01  0.387E-01
  -8.079  0.412E-01  0.412E-01
  -8.069  0.449E-01  0.449E-01
  -8.059  0.496E-01  0.496E-01
  -8.049  0.554E-01  0.554E-01
  -8.039  0.623E-01  0.623E-01
  -8.029  0.706E-01  0.706E-01
  -8.019  0.801E-01  0.801E-01
  -8.009  0.892E-01  0.892E-01
  -7.999  0.778E-01  0.778E-01
  -7.989  0.680E-01  0.680E-01
  -7.979  0.144E+00  0.144E+00
  -7.969  0.103E+00  0.103E+00
  -7.959  0.713E-01  0.713E-01
  -7.949  0.507E-01  0.507E-01
  -7.939  0.402E-01  0.402E-01
  -7.929  0.353E-01  0.353E-01
  -7.919  0.306E-01  0.306E-01
  -7.909  0.259E-01  0.259E-01
  -7.899  0.214E-01  0.214E-01
  -7.889  0.170E-01  0.170E-01
  -7.879  0.130E-01  0.130E-01
  -7.869  0.115E-01  0.115E-01
  -7.859  0.115E-01  0.115E-01
  -7.849  0.106E-01  0.106E-01
  -7.839  0.100E-01  0.100E-01
  -7.829  0.960E-02  0.960E-02
  -7.819  0.938E-02  0.938E-02
  -7.809  0.940E-02  0.940E-02
  -7.799  0.952E-02  0.952E-02
  -7.789  0.965E-02  0.965E-02
  -7.779  0.980E-02  0.980E-02
  -7.769  0.995E-02  0.995E-02
  -7.759  0.101E-01  0.101E-01
  -7.749  0.103E-01  0.103E-01
  -7.739  0.105E-01  0.105E-01
  -7.729  0.107E-01  0.107E-01
  -7.719  0.109E-01  0.109E-01
  -7.709  0.111E-01  0.111E-01
  -7.699  0.113E-01  0.113E-01
  -7.689  0.114E-01  0.114E-01
  -7.679  0.116E-01  0.116E-01
  -7.669  0.118E-01  0.118E-01
  -7.659  0.120E-01  0.120E-01
  -7.649  0.212E-01  0.212E-01
  -7.639  0.450E-01  0.450E-01
  -7.629  0.714E-01  0.714E-01
  -7.619  0.110E+00  0.110E+00
  -7.609  0.104E+00  0.104E+00
  -7.599  0.464E-01  0.464E-01
  -7.589  0.288E-01  0.288E-01
  -7.579  0.301E-01  0.301E-01
  -7.569  0.313E-01  0.313E-01
  -7.559  0.325E-01  0.325E-01
  -7.549  0.335E-01  0.335E-01
  -7.539  0.344E-01  0.344E-01
  -7.529  0.351E-01  0.351E-01
  -7.519  0.359E-01  0.359E-01
  -7.509  0.365E-01  0.365E-01
  -7.499  0.370E-01  0.370E-01
  -7.489  0.374E-01  0.374E-01
  -7.479  0.377E-01  0.377E-01
  -7.469  0.379E-01  0.379E-01
  -7.459  0.380E-01  0.380E-01
  -7.449  0.379E-01  0.379E-01
  -7.439  0.378E-01  0.378E-01
  -7.429  0.375E-01  0.375E-01
  -7.419  0.986E-01  0.986E-01
  -7.409  0.837E-01  0.837E-01
  -7.399  0.688E-01  0.688E-01
  -7.389  0.566E-01  0.566E-01
  -7.379  0.474E-01  0.474E-01
  -7.369  0.405E-01  0.405E-01
  -7.359  0.358E-01  0.358E-01
  -7.349  0.334E-01  0.334E-01
  -7.339  0.324E-01  0.324E-01
  -7.329  0.312E-01  0.312E-01
  -7.319  0.297E-01  0.297E-01
  -7.309  0.280E-01  0.280E-01
  -7.299  0.261E-01  0.261E-01
  -7.289  0.246E-01  0.246E-01
  -7.279  0.237E-01  0.237E-01
  -7.269  0.257E-01  0.257E-01
  -7.259  0.258E-01  0.258E-01
  -7.249  0.259E-01  0.259E-01
  -7.239  0.264E-01  0.264E-01
  -7.229  0.269E-01  0.269E-01
  -7.219  0.271E-01  0.271E-01
  -7.209  0.270E-01  0.270E-01
  -7.199  0.270E-01  0.270E-01
  -7.189  0.269E-01  0.269E-01
  -7.179  0.268E-01  0.268E-01
  -7.169  0.267E-01  0.267E-01
  -7.159  0.266E-01  0.266E-01
  -7.149  0.265E-01  0.265E-01
  -7.139  0.264E-01  0.264E-01
  -7.129  0.263E-01  0.263E-01
  -7.119  0.262E-01  0.262E-01
  -7.109  0.260E-01  0.260E-01
  -7.099  0.259E-01  0.259E-01
  -7.089  0.257E-01  0.257E-01
  -7.079  0.255E-01  0.255E-01
  -7.069  0.253E-01  0.253E-01
  -7.059  0.252E-01  0.252E-01
  -7.049  0.250E-01  0.250E-01
  -7.039  0.247E-01  0.247E-01
  -7.029  0.245E-01  0.245E-01
  -7.019  0.274E-01  0.274E-01
  -7.009  0.323E-01  0.323E-01
  -6.999  0.268E-01  0.268E-01
  -6.989  0.414E-01  0.414E-01
  -6.979  0.922E-01  0.922E-01
  -6.969  0.385E-01  0.385E-01
  -6.959  0.341E-01  0.341E-01
  -6.949  0.304E-01  0.304E-01
  -6.939  0.273E-01  0.273E-01
  -6.929  0.249E-01  0.249E-01
  -6.919  0.231E-01  0.231E-01
  -6.909  0.220E-01  0.220E-01
  -6.899  0.215E-01  0.215E-01
  -6.889  0.434E-01  0.434E-01
  -6.879  0.384E-01  0.384E-01
  -6.869  0.340E-01  0.340E-01
  -6.859  0.302E-01  0.302E-01
  -6.849  0.135E+01  0.135E+01
  -6.839  0.260E-01  0.260E-01
  -6.829  0.298E-01  0.298E-01
  -6.819  0.385E-01  0.385E-01
  -6.809  0.241E-01  0.241E-01
  -6.799  0.217E-01  0.217E-01
  -6.789  0.193E-01  0.193E-01
  -6.779  0.170E-01  0.170E-01
  -6.769  0.149E-01  0.149E-01
  -6.759  0.128E-01  0.128E-01
  -6.749  0.109E-01  0.109E-01
  -6.739  0.898E-02  0.898E-02
  -6.729  0.721E-02  0.721E-02
  -6.719  0.570E-02  0.570E-02
  -6.709  0.482E-02  0.482E-02
  -6.699  0.547E-02  0.547E-02
  -6.689  0.630E-02  0.630E-02
  -6.679  0.688E-02  0.688E-02
  -6.669  0.746E-02  0.746E-02
  -6.659  0.841E-02  0.841E-02
  -6.649  0.919E-02  0.919E-02
  -6.639  0.968E-02  0.968E-02
  -6.629  0.989E-02  0.989E-02
  -6.619  0.982E-02  0.982E-02
  -6.609  0.110E-01  0.110E-01
  -6.599  0.142E-01  0.142E-01
  -6.589  0.166E-01  0.166E-01
  -6.579  0.181E-01  0.181E-01
  -6.569  0.186E-01  0.186E-01
  -6.559  0.183E-01  0.183E-01
  -6.549  0.171E-01  0.171E-01
  -6.539  0.293E-01  0.293E-01
  -6.529  0.492E-01  0.492E-01
  -6.519  0.636E-01  0.636E-01
  -6.509  0.200E-01  0.200E-01
  -6.499  0.208E-01  0.208E-01
  -6.489  0.217E-01  0.217E-01
  -6.479  0.227E-01  0.227E-01
  -6.469  0.239E-01  0.239E-01
  -6.459  0.250E-01  0.250E-01
  -6.449  0.261E-01  0.261E-01
  -6.439  0.271E-01  0.271E-01
  -6.429  0.280E-01  0.280E-01
  -6.419  0.289E-01  0.289E-01
  -6.409  0.297E-01  0.297E-01
  -6.399  0.305E-01  0.305E-01
  -6.389  0.311E-01  0.311E-01
  -6.379  0.318E-01  0.318E-01
  -6.369  0.331E-01  0.331E-01
  -6.359  0.349E-01  0.349E-01
  -6.349  0.373E-01  0.373E-01
  -6.339  0.403E-01  0.403E-01
  -6.329  0.438E-01  0.438E-01
  -6.319  0.224E+00  0.224E+00
  -6.309  0.871E-01  0.871E-01
  -6.299  0.279E-01  0.279E-01
  -6.289  0.199E-01  0.199E-01
  -6.279  0.287E-01  0.287E-01
  -6.269  0.370E-01  0.370E-01
  -6.259  0.443E-01  0.443E-01
  -6.249  0.503E-01  0.503E-01
  -6.239  0.203E-01  0.203E-01
  -6.229  0.201E-01  0.201E-01
  -6.219  0.199E-01  0.199E-01
  -6.209  0.197E-01  0.197E-01
  -6.199  0.194E-01  0.194E-01
  -6.189  0.194E-01  0.194E-01
  -6.179  0.193E-01  0.193E-01
  -6.169  0.193E-01  0.193E-01
  -6.159  0.199E-01  0.199E-01
  -6.149  0.200E-01  0.200E-01
  -6.139  0.198E-01  0.198E-01
  -6.129  0.196E-01  0.196E-01
  -6.119  0.211E-01  0.211E-01
  -6.109  0.206E-01  0.206E-01
  -6.099  0.194E-01  0.194E-01
  -6.089  0.190E-01  0.190E-01
  -6.079  0.186E-01  0.186E-01
  -6.069  0.182E-01  0.182E-01
  -6.059  0.179E-01  0.179E-01
  -6.049  0.177E-01  0.177E-01
  -6.039  0.176E-01  0.176E-01
  -6.029  0.175E-01  0.175E-01
  -6.019  0.175E-01  0.175E-01
  -6.009  0.175E-01  0.175E-01
  -5.999  0.175E-01  0.175E-01
  -5.989  0.176E-01  0.176E-01
  -5.979  0.178E-01  0.178E-01
  -5.969  0.180E-01  0.180E-01
  -5.959  0.185E-01  0.185E-01
  -5.949  0.190E-01  0.190E-01
  -5.939  0.196E-01  0.196E-01
  -5.929  0.202E-01  0.202E-01
  -5.919  0.209E-01  0.209E-01
  -5.909  0.226E-01  0.226E-01
  -5.899  0.225E-01  0.225E-01
  -5.889  0.234E-01  0.234E-01
  -5.879  0.241E-01  0.241E-01
  -5.869  0.251E-01  0.251E-01
  -5.859  0.271E-01  0.271E-01
  -5.849  0.291E-01  0.291E-01
  -5.839  0.309E-01  0.309E-01
  -5.829  0.326E-01  0.326E-01
  -5.819  0.347E-01  0.347E-01
  -5.809  0.370E-01  0.370E-01
  -5.799  0.388E-01  0.388E-01
  -5.789  0.401E-01  0.401E-01
  -5.779  0.408E-01  0.408E-01
  -5.769  0.409E-01  0.409E-01
  -5.759  0.405E-01  0.405E-01
  -5.749  0.396E-01  0.396E-01
  -5.739  0.381E-01  0.381E-01
  -5.729  0.311E-01  0.311E-01
  -5.719  0.243E-01  0.243E-01
  -5.709  0.191E-01  0.191E-01
  -5.699  0.169E-01  0.169E-01
  -5.689  0.179E-01  0.179E-01
  -5.679  0.188E-01  0.188E-01
  -5.669  0.198E-01  0.198E-01
  -5.659  0.204E-01  0.204E-01
  -5.649  0.201E-01  0.201E-01
  -5.639  0.198E-01  0.198E-01
  -5.629  0.196E-01  0.196E-01
  -5.619  0.194E-01  0.194E-01
  -5.609  0.192E-01  0.192E-01
  -5.599  0.191E-01  0.191E-01
  -5.589  0.190E-01  0.190E-01
  -5.579  0.189E-01  0.189E-01
  -5.569  0.156E-01  0.156E-01
  -5.559  0.154E-01  0.154E-01
  -5.549  0.152E-01  0.152E-01
  -5.539  0.150E-01  0.150E-01
  -5.529  0.148E-01  0.148E-01
  -5.519  0.146E-01  0.146E-01
  -5.509  0.144E-01  0.144E-01
  -5.499  0.143E-01  0.143E-01
  -5.489  0.141E-01  0.141E-01
  -5.479  0.139E-01  0.139E-01
  -5.469  0.137E-01  0.137E-01
  -5.459  0.135E-01  0.135E-01
  -5.449  0.133E-01  0.133E-01
  -5.439  0.132E-01  0.132E-01
  -5.429  0.130E-01  0.130E-01
  -5.419  0.128E-01  0.128E-01
  -5.409  0.126E-01  0.126E-01
  -5.399  0.346E-01  0.346E-01
  -5.389  0.155E-01  0.155E-01
  -5.379  0.810E-02  0.810E-02
  -5.369  0.848E-02  0.848E-02
  -5.359  0.948E-02  0.948E-02
  -5.349  0.102E-01  0.102E-01
  -5.339  0.108E-01  0.108E-01
  -5.329  0.111E-01  0.111E-01
  -5.319  0.111E-01  0.111E-01
  -5.309  0.110E-01  0.110E-01
  -5.299  0.106E-01  0.106E-01
  -5.289  0.998E-02  0.998E-02
  -5.279  0.913E-02  0.913E-02
  -5.269  0.844E-02  0.844E-02
  -5.259  0.127E-01  0.127E-01
  -5.249  0.218E-01  0.218E-01
  -5.239  0.212E-01  0.212E-01
  -5.229  0.196E-01  0.196E-01
  -5.219  0.253E-01  0.253E-01
  -5.209  0.286E-01  0.286E-01
  -5.199  0.292E-01  0.292E-01
  -5.189  0.319E-01  0.319E-01
  -5.179  0.420E-01  0.420E-01
  -5.169  0.488E-01  0.488E-01
  -5.159  0.682E-01  0.682E-01
  -5.149  0.260E-01  0.260E-01
  -5.139  0.223E-01  0.223E-01
  -5.129  0.188E-01  0.188E-01
  -5.119  0.156E-01  0.156E-01
  -5.109  0.127E-01  0.127E-01
  -5.099  0.102E-01  0.102E-01
  -5.089  0.813E-02  0.813E-02
  -5.079  0.646E-02  0.646E-02
  -5.069  0.518E-02  0.518E-02
  -5.059  0.433E-02  0.433E-02
  -5.049  0.385E-02  0.385E-02
  -5.039  0.418E-02  0.418E-02
  -5.029  0.463E-02  0.463E-02
  -5.019  0.512E-02  0.512E-02
  -5.009  0.734E-02  0.734E-02
  -4.999  0.959E-02  0.959E-02
  -4.989  0.115E-01  0.115E-01
  -4.979  0.161E-01  0.161E-01
  -4.969  0.209E-01  0.209E-01
  -4.959  0.239E-01  0.239E-01
  -4.949  0.241E-01  0.241E-01
  -4.939  0.253E-01  0.253E-01
  -4.929  0.244E-01  0.244E-01
  -4.919  0.213E-01  0.213E-01
  -4.909  0.138E-01  0.138E-01
  -4.899  0.578E-02  0.578E-02
  -4.889  0.169E-01  0.169E-01
  -4.879  0.591E-02  0.591E-02
  -4.869  0.205E-02  0.205E-02
  -4.859  0.157E-02  0.157E-02
  -4.849  0.183E-02  0.183E-02
  -4.839  0.236E-02  0.236E-02
  -4.829  0.314E-02  0.314E-02
  -4.819  0.417E-02  0.417E-02
  -4.809  0.544E-02  0.544E-02
  -4.799  0.332E-02  0.332E-02
  -4.789  0.374E-02  0.374E-02
  -4.779  0.424E-02  0.424E-02
  -4.769  0.481E-02  0.481E-02
  -4.759  0.544E-02  0.544E-02
  -4.749  0.618E-02  0.618E-02
  -4.739  0.699E-02  0.699E-02
  -4.729  0.788E-02  0.788E-02
  -4.719  0.885E-02  0.885E-02
  -4.709  0.991E-02  0.991E-02
  -4.699  0.114E-01  0.114E-01
  -4.689  0.251E-01  0.251E-01
  -4.679  0.344E-01  0.344E-01
  -4.669  0.274E-01  0.274E-01
  -4.659  0.194E-01  0.194E-01
  -4.649  0.132E-01  0.132E-01
  -4.639  0.879E-02  0.879E-02
  -4.629  0.622E-02  0.622E-02
  -4.619  0.623E-02  0.623E-02
  -4.609  0.159E-01  0.159E-01
  -4.599  0.727E-02  0.727E-02
  -4.589  0.631E-02  0.631E-02
  -4.579  0.624E-02  0.624E-02
  -4.569  0.618E-02  0.618E-02
  -4.559  0.647E-02  0.647E-02
  -4.549  0.698E-02  0.698E-02
  -4.539  0.767E-02  0.767E-02
  -4.529  0.828E-02  0.828E-02
  -4.519  0.865E-02  0.865E-02
  -4.509  0.849E-02  0.849E-02
  -4.499  0.911E-02  0.911E-02
  -4.489  0.979E-02  0.979E-02
  -4.479  0.160E-01  0.160E-01
  -4.469  0.162E-01  0.162E-01
  -4.459  0.773E-02  0.773E-02
  -4.449  0.771E-02  0.771E-02
  -4.439  0.814E-02  0.814E-02
  -4.429  0.796E-02  0.796E-02
  -4.419  0.778E-02  0.778E-02
  -4.409  0.758E-02  0.758E-02
  -4.399  0.737E-02  0.737E-02
  -4.389  0.716E-02  0.716E-02
  -4.379  0.693E-02  0.693E-02
  -4.369  0.667E-02  0.667E-02
  -4.359  0.644E-02  0.644E-02
  -4.349  0.633E-02  0.633E-02
  -4.339  0.642E-02  0.642E-02
  -4.329  0.610E-02  0.610E-02
  -4.319  0.539E-02  0.539E-02
  -4.309  0.412E-02  0.412E-02
  -4.299  0.346E-02  0.346E-02
  -4.289  0.475E-02  0.475E-02
  -4.279  0.610E-02  0.610E-02
  -4.269  0.747E-02  0.747E-02
  -4.259  0.813E-02  0.813E-02
  -4.249  0.250E-02  0.250E-02
  -4.239  0.279E-02  0.279E-02
  -4.229  0.338E-02  0.338E-02
  -4.219  0.424E-02  0.424E-02
  -4.209  0.567E-02  0.567E-02
  -4.199  0.657E-02  0.657E-02
  -4.189  0.706E-02  0.706E-02
  -4.179  0.747E-02  0.747E-02
  -4.169  0.781E-02  0.781E-02
  -4.159  0.807E-02  0.807E-02
  -4.149  0.827E-02  0.827E-02
  -4.139  0.837E-02  0.837E-02
  -4.129  0.840E-02  0.840E-02
  -4.119  0.130E-01  0.130E-01
  -4.109  0.769E-02  0.769E-02
  -4.099  0.717E-02  0.717E-02
  -4.089  0.702E-02  0.702E-02
  -4.079  0.679E-02  0.679E-02
  -4.069  0.438E-02  0.438E-02
  -4.059  0.411E-02  0.411E-02
  -4.049  0.385E-02  0.385E-02
  -4.039  0.361E-02  0.361E-02
  -4.029  0.339E-02  0.339E-02
  -4.019  0.318E-02  0.318E-02
  -4.009  0.298E-02  0.298E-02
  -3.999  0.280E-02  0.280E-02
  -3.989  0.268E-02  0.268E-02
  -3.979  0.246E-02  0.246E-02
  -3.969  0.224E-02  0.224E-02
  -3.959  0.207E-02  0.207E-02
  -3.949  0.201E-02  0.201E-02
  -3.939  0.404E-02  0.404E-02
  -3.929  0.348E-02  0.348E-02
  -3.919  0.325E-02  0.325E-02
  -3.909  0.294E-02  0.294E-02
  -3.899  0.257E-02  0.257E-02
  -3.889  0.225E-02  0.225E-02
  -3.879  0.193E-02  0.193E-02
  -3.869  0.162E-02  0.162E-02
  -3.859  0.132E-02  0.132E-02
  -3.849  0.102E-02  0.102E-02
  -3.839  0.729E-03  0.729E-03
  -3.829  0.485E-03  0.485E-03
  -3.819  0.298E-03  0.298E-03
  -3.809  0.163E-03  0.163E-03
  -3.799  0.374E-03  0.374E-03
  -3.789  0.859E-03  0.859E-03
  -3.779  0.161E-02  0.161E-02
  -3.769  0.264E-02  0.264E-02
  -3.759  0.393E-02  0.393E-02
  -3.749  0.549E-02  0.549E-02
  -3.739  0.348E-02  0.348E-02
  -3.729  0.363E-02  0.363E-02
  -3.719  0.378E-02  0.378E-02
  -3.709  0.389E-02  0.389E-02
  -3.699  0.468E-02  0.468E-02
  -3.689  0.617E-02  0.617E-02
  -3.679  0.385E-02  0.385E-02
  -3.669  0.372E-02  0.372E-02
  -3.659  0.354E-02  0.354E-02
  -3.649  0.330E-02  0.330E-02
  -3.639  0.299E-02  0.299E-02
  -3.629  0.248E-02  0.248E-02
  -3.619  0.208E-02  0.208E-02
  -3.609  0.198E-02  0.198E-02
  -3.599  0.188E-02  0.188E-02
  -3.589  0.178E-02  0.178E-02
  -3.579  0.169E-02  0.169E-02
  -3.569  0.159E-02  0.159E-02
  -3.559  0.149E-02  0.149E-02
  -3.549  0.139E-02  0.139E-02
  -3.539  0.129E-02  0.129E-02
  -3.529  0.120E-02  0.120E-02
  -3.519  0.111E-02  0.111E-02
  -3.509  0.103E-02  0.103E-02
  -3.499  0.953E-03  0.953E-03
  -3.489  0.663E-03  0.663E-03
  -3.479  0.563E-03  0.563E-03
  -3.469  0.469E-03  0.469E-03
  -3.459  0.497E-03  0.497E-03
  -3.449  0.527E-03  0.527E-03
  -3.439  0.558E-03  0.558E-03
  -3.429  0.592E-03  0.592E-03
  -3.419  0.627E-03  0.627E-03
  -3.409  0.664E-03  0.664E-03
  -3.399  0.703E-03  0.703E-03
  -3.389  0.744E-03  0.744E-03
  -3.379  0.787E-03  0.787E-03
  -3.369  0.832E-03  0.832E-03
  -3.359  0.821E-03  0.821E-03
  -3.349  0.736E-03  0.736E-03
  -3.339  0.645E-03  0.645E-03
  -3.329  0.559E-03  0.559E-03
  -3.319  0.480E-03  0.480E-03
  -3.309  0.407E-03  0.407E-03
  -3.299  0.341E-03  0.341E-03
  -3.289  0.281E-03  0.281E-03
  -3.279  0.227E-03  0.227E-03
  -3.269  0.180E-03  0.180E-03
  -3.259  0.154E-03  0.154E-03
  -3.249  0.140E-03  0.140E-03
  -3.239  0.123E-03  0.123E-03
  -3.229  0.104E-03  0.104E-03
  -3.219  0.991E-04  0.991E-04
  -3.209  0.991E-04  0.991E-04
  -3.199  0.989E-04  0.989E-04
  -3.189  0.986E-04  0.986E-04
  -3.179  0.987E-04  0.987E-04
  -3.169  0.990E-04  0.990E-04
  -3.159  0.993E-04  0.993E-04
  -3.149  0.996E-04  0.996E-04
  -3.139  0.998E-04  0.998E-04
  -3.129  0.101E-03  0.101E-03
  -3.119  0.102E-03  0.102E-03
  -3.109  0.104E-03  0.104E-03
  -3.099  0.106E-03  0.106E-03
  -3.089  0.108E-03  0.108E-03
  -3.079  0.110E-03  0.110E-03
  -3.069  0.113E-03  0.113E-03
  -3.059  0.110E-03  0.110E-03
  -3.049  0.104E-03  0.104E-03
  -3.039  0.978E-04  0.978E-04
  -3.029  0.121E-03  0.121E-03
  -3.019  0.157E-03  0.157E-03
  -3.009  0.104E-03  0.104E-03
  -2.999  0.100E-03  0.100E-03
  -2.989  0.968E-04  0.968E-04
  -2.979  0.933E-04  0.933E-04
  -2.969  0.898E-04  0.898E-04
  -2.959  0.862E-04  0.862E-04
  -2.949  0.869E-04  0.869E-04
  -2.939  0.869E-04  0.869E-04
  -2.929  0.859E-04  0.859E-04
  -2.919  0.839E-04  0.839E-04
  -2.909  0.117E-03  0.117E-03
  -2.899  0.978E-04  0.978E-04
  -2.889  0.795E-04  0.795E-04
  -2.879  0.654E-04  0.654E-04
  -2.869  0.493E-04  0.493E-04
  -2.859  0.428E-04  0.428E-04
  -2.849  0.511E-04  0.511E-04
  -2.839  0.603E-04  0.603E-04
  -2.829  0.659E-04  0.659E-04
  -2.819  0.684E-04  0.684E-04
  -2.809  0.709E-04  0.709E-04
  -2.799  0.787E-04  0.787E-04
  -2.789  0.134E-03  0.134E-03
  -2.779  0.921E-04  0.921E-04
  -2.769  0.105E-03  0.105E-03
  -2.759  0.119E-03  0.119E-03
  -2.749  0.171E-03  0.171E-03
  -2.739  0.164E-03  0.164E-03
  -2.729  0.160E-03  0.160E-03
  -2.719  0.159E-03  0.159E-03
  -2.709  0.788E-03  0.788E-03
  -2.699  0.347E-03  0.347E-03
  -2.689  0.254E-03  0.254E-03
  -2.679  0.277E-03  0.277E-03
  -2.669  0.318E-03  0.318E-03
  -2.659  0.416E-03  0.416E-03
  -2.649  0.454E-03  0.454E-03
  -2.639  0.545E-03  0.545E-03
  -2.629  0.314E-03  0.314E-03
  -2.619  0.227E-03  0.227E-03
  -2.609  0.129E-03  0.129E-03
  -2.599  0.939E-04  0.939E-04
  -2.589  0.547E-04  0.547E-04
  -2.579  0.508E-04  0.508E-04
  -2.569  0.485E-04  0.485E-04
  -2.559  0.715E-04  0.715E-04
  -2.549  0.385E-04  0.385E-04
  -2.539  0.694E-04  0.694E-04
  -2.529  0.846E-04  0.846E-04
  -2.519  0.885E-04  0.885E-04
  -2.509  0.169E-03  0.169E-03
  -2.499  0.187E-03  0.187E-03
  -2.489  0.195E-03  0.195E-03
  -2.479  0.194E-03  0.194E-03
  -2.469  0.182E-03  0.182E-03
  -2.459  0.159E-03  0.159E-03
  -2.449  0.127E-03  0.127E-03
  -2.439  0.867E-04  0.867E-04
  -2.429  0.888E-04  0.888E-04
  -2.419  0.895E-04  0.895E-04
  -2.409  0.899E-04  0.899E-04
  -2.399  0.831E-04  0.831E-04
  -2.389  0.713E-04  0.713E-04
  -2.379  0.297E-03  0.297E-03
  -2.369  0.483E-04  0.483E-04
  -2.359  0.344E-04  0.344E-04
  -2.349  0.111E-03  0.111E-03
  -2.339  0.106E-03  0.106E-03
  -2.329  0.111E-03  0.111E-03
  -2.319  0.128E-03  0.128E-03
  -2.309  0.148E-03  0.148E-03
  -2.299  0.128E-03  0.128E-03
  -2.289  0.881E-04  0.881E-04
  -2.279  0.799E-04  0.799E-04
  -2.269  0.735E-04  0.735E-04
  -2.259  0.664E-04  0.664E-04
  -2.249  0.612E-04  0.612E-04
  -2.239  0.572E-04  0.572E-04
  -2.229  0.532E-04  0.532E-04
  -2.219  0.492E-04  0.492E-04
  -2.209  0.452E-04  0.452E-04
  -2.199  0.413E-04  0.413E-04
  -2.189  0.373E-04  0.373E-04
  -2.179  0.780E-04  0.780E-04
  -2.169  0.351E-04  0.351E-04
  -2.159  0.668E-04  0.668E-04
  -2.149  0.107E-03  0.107E-03
  -2.139  0.154E-03  0.154E-03
  -2.129  0.171E-03  0.171E-03
  -2.119  0.374E-04  0.374E-04
  -2.109  0.328E-04  0.328E-04
  -2.099  0.461E-04  0.461E-04
  -2.089  0.156E-04  0.156E-04
  -2.079  0.149E-04  0.149E-04
  -2.069  0.145E-04  0.145E-04
  -2.059  0.143E-04  0.143E-04
  -2.049  0.169E-04  0.169E-04
  -2.039  0.166E-04  0.166E-04
  -2.029  0.163E-04  0.163E-04
  -2.019  0.167E-04  0.167E-04
  -2.009  0.166E-04  0.166E-04
  -1.999  0.166E-04  0.166E-04
  -1.989  0.165E-04  0.165E-04
  -1.979  0.165E-04  0.165E-04
  -1.969  0.164E-04  0.164E-04
  -1.959  0.164E-04  0.164E-04
  -1.949  0.162E-04  0.162E-04
  -1.939  0.159E-04  0.159E-04
  -1.929  0.156E-04  0.156E-04
  -1.919  0.151E-04  0.151E-04
  -1.909  0.156E-04  0.156E-04
  -1.899  0.182E-04  0.182E-04
  -1.889  0.229E-04  0.229E-04
  -1.879  0.310E-04  0.310E-04
  -1.869  0.557E-04  0.557E-04
  -1.859  0.335E-03  0.335E-03
  -1.849  0.295E-03  0.295E-03
  -1.839  0.442E-03  0.442E-03
  -1.829  0.136E-03  0.136E-03
  -1.819  0.891E-04  0.891E-04
  -1.809  0.576E-04  0.576E-04
  -1.799  0.424E-04  0.424E-04
  -1.789  0.408E-04  0.408E-04
  -1.779  0.392E-04  0.392E-04
  -1.769  0.376E-04  0.376E-04
  -1.759  0.360E-04  0.360E-04
  -1.749  0.344E-04  0.344E-04
  -1.739  0.328E-04  0.328E-04
  -1.729  0.312E-04  0.312E-04
  -1.719  0.297E-04  0.297E-04
  -1.709  0.281E-04  0.281E-04
  -1.699  0.281E-04  0.281E-04
  -1.689  0.285E-04  0.285E-04
  -1.679  0.290E-04  0.290E-04
  -1.669  0.295E-04  0.295E-04
  -1.659  0.300E-04  0.300E-04
  -1.649  0.307E-04  0.307E-04
  -1.639  0.244E-04  0.244E-04
  -1.629  0.258E-04  0.258E-04
  -1.619  0.463E-04  0.463E-04
  -1.609  0.649E-04  0.649E-04
  -1.599  0.815E-04  0.815E-04
  -1.589  0.101E-03  0.101E-03
  -1.579  0.967E-04  0.967E-04
  -1.569  0.336E-04  0.336E-04
  -1.559  0.303E-04  0.303E-04
  -1.549  0.141E-03  0.141E-03
  -1.539  0.596E-04  0.596E-04
  -1.529  0.548E-04  0.548E-04
  -1.519  0.506E-04  0.506E-04
  -1.509  0.469E-04  0.469E-04
  -1.499  0.439E-04  0.439E-04
  -1.489  0.415E-04  0.415E-04
  -1.479  0.397E-04  0.397E-04
  -1.469  0.385E-04  0.385E-04
  -1.459  0.381E-04  0.381E-04
  -1.449  0.410E-04  0.410E-04
  -1.439  0.554E-04  0.554E-04
  -1.429  0.555E-04  0.555E-04
  -1.419  0.554E-04  0.554E-04
  -1.409  0.549E-04  0.549E-04
  -1.399  0.542E-04  0.542E-04
  -1.389  0.531E-04  0.531E-04
  -1.379  0.518E-04  0.518E-04
  -1.369  0.537E-04  0.537E-04
  -1.359  0.562E-04  0.562E-04
  -1.349  0.586E-04  0.586E-04
  -1.339  0.607E-04  0.607E-04
  -1.329  0.627E-04  0.627E-04
  -1.319  0.382E-04  0.382E-04
  -1.309  0.387E-04  0.387E-04
  -1.299  0.393E-04  0.393E-04
  -1.289  0.398E-04  0.398E-04
  -1.279  0.404E-04  0.404E-04
  -1.269  0.410E-04  0.410E-04
  -1.259  0.416E-04  0.416E-04
  -1.249  0.428E-04  0.428E-04
  -1.239  0.439E-04  0.439E-04
  -1.229  0.447E-04  0.447E-04
  -1.219  0.452E-04  0.452E-04
  -1.209  0.456E-04  0.456E-04
  -1.199  0.459E-04  0.459E-04
  -1.189  0.461E-04  0.461E-04
  -1.179  0.461E-04  0.461E-04
  -1.169  0.461E-04  0.461E-04
  -1.159  0.459E-04  0.459E-04
  -1.149  0.457E-04  0.457E-04
  -1.139  0.453E-04  0.453E-04
  -1.129  0.448E-04  0.448E-04
  -1.119  0.442E-04  0.442E-04
  -1.109  0.435E-04  0.435E-04
  -1.099  0.432E-04  0.432E-04
  -1.089  0.435E-04  0.435E-04
  -1.079  0.436E-04  0.436E-04
  -1.069  0.437E-04  0.437E-04
  -1.059  0.437E-04  0.437E-04
  -1.049  0.436E-04  0.436E-04
  -1.039  0.434E-04  0.434E-04
  -1.029  0.431E-04  0.431E-04
  -1.019  0.428E-04  0.428E-04
  -1.009  0.423E-04  0.423E-04
  -0.999  0.418E-04  0.418E-04
  -0.989  0.412E-04  0.412E-04
  -0.979  0.406E-04  0.406E-04
  -0.969  0.398E-04  0.398E-04
  -0.959  0.389E-04  0.389E-04
  -0.949  0.374E-04  0.374E-04
  -0.939  0.354E-04  0.354E-04
  -0.929  0.335E-04  0.335E-04
  -0.919  0.315E-04  0.315E-04
  -0.909  0.297E-04  0.297E-04
  -0.899  0.278E-04  0.278E-04
  -0.889  0.260E-04  0.260E-04
  -0.879  0.242E-04  0.242E-04
  -0.869  0.224E-04  0.224E-04
  -0.859  0.207E-04  0.207E-04
  -0.849  0.190E-04  0.190E-04
  -0.839  0.174E-04  0.174E-04
  -0.829  0.157E-04  0.157E-04
  -0.819  0.141E-04  0.141E-04
  -0.809  0.126E-04  0.126E-04
  -0.799  0.110E-04  0.110E-04
  -0.789  0.951E-05  0.951E-05
  -0.779  0.803E-05  0.803E-05
  -0.769  0.659E-05  0.659E-05
  -0.759  0.518E-05  0.518E-05
  -0.749  0.380E-05  0.380E-05
  -0.739  0.245E-05  0.245E-05
  -0.729  0.113E-05  0.113E-05
  -0.719  0.000E+00  0.000E+00
  -0.709  0.000E+00  0.000E+00
  -0.699  0.000E+00  0.000E+00
  -0.689  0.000E+00  0.000E+00
  -0.679  0.000E+00  0.000E+00
  -0.669  0.000E+00  0.000E+00
  -0.659  0.000E+00  0.000E+00
  -0.649  0.000E+00  0.000E+00
  -0.639  0.000E+00  0.000E+00
  -0.629  0.000E+00  0.000E+00
  -0.619  0.156E-05  0.156E-05
  -0.609  0.927E-05  0.927E-05
  -0.599  0.167E-04  0.167E-04
  -0.589  0.237E-04  0.237E-04
  -0.579  0.305E-04  0.305E-04
  -0.569  0.391E-04  0.391E-04
  -0.559  0.479E-04  0.479E-04
  -0.549  0.563E-04  0.563E-04
  -0.539  0.643E-04  0.643E-04
  -0.529  0.720E-04  0.720E-04
  -0.519  0.794E-04  0.794E-04
  -0.509  0.864E-04  0.864E-04
  -0.499  0.931E-04  0.931E-04
  -0.489  0.994E-04  0.994E-04
  -0.479  0.105E-03  0.105E-03
  -0.469  0.111E-03  0.111E-03
  -0.459  0.116E-03  0.116E-03
  -0.449  0.121E-03  0.121E-03
  -0.439  0.126E-03  0.126E-03
  -0.429  0.130E-03  0.130E-03
  -0.419  0.295E-03  0.295E-03
  -0.409  0.281E-03  0.281E-03
  -0.399  0.275E-03  0.275E-03
  -0.389  0.268E-03  0.268E-03
  -0.379  0.264E-03  0.264E-03
  -0.369  0.262E-03  0.262E-03
  -0.359  0.295E-03  0.295E-03
  -0.349  0.506E-03  0.506E-03
  -0.339  0.820E-03  0.820E-03
  -0.329  0.116E-02  0.116E-02
  -0.319  0.689E-03  0.689E-03
  -0.309  0.715E-03  0.715E-03
  -0.299  0.748E-03  0.748E-03
  -0.289  0.459E-03  0.459E-03
  -0.279  0.111E-03  0.111E-03
  -0.269  0.116E-03  0.116E-03
  -0.259  0.371E-03  0.371E-03
  -0.249  0.404E-03  0.404E-03
  -0.239  0.464E-03  0.464E-03
  -0.229  0.105E-02  0.105E-02
  -0.219  0.348E-04  0.348E-04
  -0.209  0.341E-04  0.341E-04
  -0.199  0.334E-04  0.334E-04
  -0.189  0.325E-04  0.325E-04
  -0.179  0.316E-04  0.316E-04
  -0.169  0.306E-04  0.306E-04
  -0.159  0.295E-04  0.295E-04
  -0.149  0.283E-04  0.283E-04
  -0.139  0.270E-04  0.270E-04
  -0.129  0.256E-04  0.256E-04
  -0.119  0.242E-04  0.242E-04
  -0.109  0.386E-04  0.386E-04
  -0.099  0.111E-03  0.111E-03
  -0.089  0.299E-03  0.299E-03
  -0.079  0.610E-03  0.610E-03
  -0.069  0.133E-02  0.133E-02
  -0.059  0.187E-02  0.187E-02
  -0.049  0.968E-03  0.968E-03
  -0.039  0.918E-03  0.918E-03
  -0.029  0.676E-03  0.676E-03
  -0.019  0.601E-03  0.601E-03
  -0.009  0.465E-03  0.465E-03
   0.001  0.315E-03  0.315E-03
   0.011  0.196E-03  0.196E-03
   0.021  0.144E-03  0.144E-03
   0.031  0.129E-03  0.129E-03
   0.041  0.129E-03  0.129E-03
   0.051  0.153E-03  0.153E-03
   0.061  0.224E-03  0.224E-03
   0.071  0.217E-03  0.217E-03
   0.081  0.912E-04  0.912E-04
   0.091  0.683E-04  0.683E-04
   0.101  0.718E-04  0.718E-04
   0.111  0.752E-04  0.752E-04
   0.121  0.785E-04  0.785E-04
   0.131  0.819E-04  0.819E-04
   0.141  0.853E-04  0.853E-04
   0.151  0.886E-04  0.886E-04
   0.161  0.920E-04  0.920E-04
   0.171  0.953E-04  0.953E-04
   0.181  0.986E-04  0.986E-04
   0.191  0.102E-03  0.102E-03
   0.201  0.105E-03  0.105E-03
   0.211  0.108E-03  0.108E-03
   0.221  0.112E-03  0.112E-03
   0.231  0.115E-03  0.115E-03
   0.241  0.118E-03  0.118E-03
   0.251  0.121E-03  0.121E-03
   0.261  0.125E-03  0.125E-03
   0.271  0.128E-03  0.128E-03
   0.281  0.131E-03  0.131E-03
   0.291  0.134E-03  0.134E-03
   0.301  0.137E-03  0.137E-03
   0.311  0.140E-03  0.140E-03
   0.321  0.144E-03  0.144E-03
   0.331  0.147E-03  0.147E-03
   0.341  0.150E-03  0.150E-03
   0.351  0.153E-03  0.153E-03
   0.361  0.156E-03  0.156E-03
   0.371  0.159E-03  0.159E-03
   0.381  0.241E-03  0.241E-03
   0.391  0.570E-03  0.570E-03
   0.401  0.851E-03  0.851E-03
   0.411  0.379E-03  0.379E-03
   0.421  0.408E-03  0.408E-03
   0.431  0.440E-03  0.440E-03
   0.441  0.481E-03  0.481E-03
   0.451  0.527E-03  0.527E-03
   0.461  0.578E-03  0.578E-03
   0.471  0.119E-02  0.119E-02
   0.481  0.168E-02  0.168E-02
   0.491  0.191E-02  0.191E-02
   0.501  0.189E-02  0.189E-02
   0.511  0.160E-02  0.160E-02
   0.521  0.137E-02  0.137E-02
   0.531  0.132E-02  0.132E-02
   0.541  0.138E-02  0.138E-02
   0.551  0.136E-02  0.136E-02
   0.561  0.124E-02  0.124E-02
   0.571  0.119E-02  0.119E-02
   0.581  0.126E-02  0.126E-02
   0.591  0.131E-02  0.131E-02
   0.601  0.148E-02  0.148E-02
   0.611  0.160E-02  0.160E-02
   0.621  0.162E-02  0.162E-02
   0.631  0.149E-02  0.149E-02
   0.641  0.143E-02  0.143E-02
   0.651  0.138E-02  0.138E-02
   0.661  0.127E-02  0.127E-02
   0.671  0.118E-02  0.118E-02
   0.681  0.111E-02  0.111E-02
   0.691  0.104E-02  0.104E-02
   0.701  0.991E-03  0.991E-03
   0.711  0.954E-03  0.954E-03
   0.721  0.929E-03  0.929E-03
   0.731  0.917E-03  0.917E-03
   0.741  0.919E-03  0.919E-03
   0.751  0.108E-02  0.108E-02
   0.761  0.106E-02  0.106E-02
   0.771  0.109E-02  0.109E-02
   0.781  0.116E-02  0.116E-02
   0.791  0.127E-02  0.127E-02
   0.801  0.130E-02  0.130E-02
   0.811  0.136E-02  0.136E-02
   0.821  0.144E-02  0.144E-02
   0.831  0.222E-02  0.222E-02
   0.841  0.194E-02  0.194E-02
   0.851  0.176E-02  0.176E-02
   0.861  0.168E-02  0.168E-02
   0.871  0.204E-02  0.204E-02
   0.881  0.268E-02  0.268E-02
   0.891  0.316E-02  0.316E-02
   0.901  0.251E-02  0.251E-02
   0.911  0.342E-02  0.342E-02
   0.921  0.409E-02  0.409E-02
   0.931  0.464E-02  0.464E-02
   0.941  0.502E-02  0.502E-02
   0.951  0.531E-02  0.531E-02
   0.961  0.551E-02  0.551E-02
   0.971  0.404E-02  0.404E-02
   0.981  0.400E-02  0.400E-02
   0.991  0.323E-02  0.323E-02
   1.001  0.390E-02  0.390E-02
   1.011  0.465E-02  0.465E-02
   1.021  0.550E-02  0.550E-02
   1.031  0.110E-01  0.110E-01
   1.041  0.456E-02  0.456E-02
   1.051  0.816E-02  0.816E-02
   1.061  0.741E-02  0.741E-02
   1.071  0.681E-02  0.681E-02
   1.081  0.635E-02  0.635E-02
   1.091  0.602E-02  0.602E-02
   1.101  0.565E-02  0.565E-02
   1.111  0.143E-01  0.143E-01
   1.121  0.574E-02  0.574E-02
   1.131  0.556E-02  0.556E-02
   1.141  0.751E-02  0.751E-02
   1.151  0.956E-02  0.956E-02
   1.161  0.114E-01  0.114E-01
   1.171  0.135E-01  0.135E-01
   1.181  0.149E-01  0.149E-01
   1.191  0.145E-01  0.145E-01
   1.201  0.150E-01  0.150E-01
   1.211  0.612E-01  0.612E-01
   1.221  0.106E+00  0.106E+00
   1.231  0.149E+00  0.149E+00
   1.241  0.109E+00  0.109E+00
   1.251  0.116E+00  0.116E+00
   1.261  0.126E+00  0.126E+00
   1.271  0.139E+00  0.139E+00
   1.281  0.155E+00  0.155E+00
   1.291  0.124E+00  0.124E+00
   1.301  0.133E+00  0.133E+00
   1.311  0.132E+00  0.132E+00
   1.321  0.134E+00  0.134E+00
   1.331  0.788E-01  0.788E-01
   1.341  0.679E-01  0.679E-01
   1.351  0.597E-01  0.597E-01
   1.361  0.500E-01  0.500E-01
   1.371  0.405E-01  0.405E-01
   1.381  0.319E-01  0.319E-01
   1.391  0.246E-01  0.246E-01
   1.401  0.180E-01  0.180E-01
   1.411  0.122E-01  0.122E-01
   1.421  0.706E-02  0.706E-02
   1.431  0.515E-02  0.515E-02
   1.441  0.409E-02  0.409E-02
   1.451  0.311E-02  0.311E-02
   1.461  0.221E-02  0.221E-02
   1.471  0.146E-02  0.146E-02
   1.481  0.138E-02  0.138E-02
   1.491  0.155E-02  0.155E-02
   1.501  0.251E-02  0.251E-02
   1.511  0.555E-02  0.555E-02
   1.521  0.843E-02  0.843E-02
   1.531  0.112E-01  0.112E-01
   1.541  0.333E-02  0.333E-02
   1.551  0.358E-02  0.358E-02
   1.561  0.465E-02  0.465E-02
   1.571  0.532E-02  0.532E-02
   1.581  0.595E-02  0.595E-02
   1.591  0.673E-02  0.673E-02
   1.601  0.766E-02  0.766E-02
   1.611  0.863E-02  0.863E-02
   1.621  0.871E-02  0.871E-02
   1.631  0.951E-02  0.951E-02
   1.641  0.102E-01  0.102E-01
   1.651  0.109E-01  0.109E-01
   1.661  0.117E-01  0.117E-01
   1.671  0.128E-01  0.128E-01
   1.681  0.141E-01  0.141E-01
   1.691  0.157E-01  0.157E-01
   1.701  0.173E-01  0.173E-01
   1.711  0.190E-01  0.190E-01
   1.721  0.208E-01  0.208E-01
   1.731  0.199E-01  0.199E-01
   1.741  0.216E-01  0.216E-01
   1.751  0.231E-01  0.231E-01
   1.761  0.244E-01  0.244E-01
   1.771  0.255E-01  0.255E-01
   1.781  0.709E-01  0.709E-01
   1.791  0.618E-01  0.618E-01
   1.801  0.524E-01  0.524E-01
   1.811  0.428E-01  0.428E-01
   1.821  0.329E-01  0.329E-01
   1.831  0.227E-01  0.227E-01
   1.841  0.200E-01  0.200E-01
   1.851  0.173E-01  0.173E-01
   1.861  0.145E-01  0.145E-01
   1.871  0.124E-01  0.124E-01
   1.881  0.995E-02  0.995E-02
   1.891  0.718E-02  0.718E-02
   1.901  0.409E-02  0.409E-02
   1.911  0.678E-03  0.678E-03
   1.921  0.000E+00  0.000E+00
