#  E (eV)   dos(E)     Int dos(E) EFermi =   -0.663 eV
 -16.164 -0.6449E-03 -0.6449E-05
 -16.154 -0.1257E-02 -0.1901E-04
 -16.144 -0.2370E-02 -0.4272E-04
 -16.134 -0.4325E-02 -0.8596E-04
 -16.124 -0.7630E-02 -0.1623E-03
 -16.114 -0.1301E-01 -0.2923E-03
 -16.104 -0.2140E-01 -0.5064E-03
 -16.094 -0.3396E-01 -0.8460E-03
 -16.084 -0.5186E-01 -0.1365E-02
 -16.074 -0.7610E-01 -0.2126E-02
 -16.064 -0.1070E+00 -0.3195E-02
 -16.054 -0.1435E+00 -0.4631E-02
 -16.044 -0.1827E+00 -0.6458E-02
 -16.034 -0.2187E+00 -0.8645E-02
 -16.024 -0.2421E+00 -0.1107E-01
 -16.014 -0.2402E+00 -0.1347E-01
 -16.004 -0.1969E+00 -0.1544E-01
 -15.994 -0.9443E-01 -0.1638E-01
 -15.984  0.8444E-01 -0.1554E-01
 -15.974  0.3540E+00 -0.1200E-01
 -15.964  0.7228E+00 -0.4768E-02
 -15.954  0.1191E+01  0.7144E-02
 -15.944  0.1751E+01  0.2465E-01
 -15.934  0.2385E+01  0.4850E-01
 -15.924  0.3069E+01  0.7919E-01
 -15.914  0.3776E+01  0.1170E+00
 -15.904  0.4477E+01  0.1617E+00
 -15.894  0.5145E+01  0.2132E+00
 -15.884  0.5754E+01  0.2707E+00
 -15.874  0.6281E+01  0.3335E+00
 -15.864  0.6708E+01  0.4006E+00
 -15.854  0.7018E+01  0.4708E+00
 -15.844  0.7203E+01  0.5428E+00
 -15.834  0.7262E+01  0.6154E+00
 -15.824  0.7208E+01  0.6875E+00
 -15.814  0.7069E+01  0.7582E+00
 -15.804  0.6890E+01  0.8271E+00
 -15.794  0.6723E+01  0.8943E+00
 -15.784  0.6619E+01  0.9605E+00
 -15.774  0.6621E+01  0.1027E+01
 -15.764  0.6749E+01  0.1094E+01
 -15.754  0.6992E+01  0.1164E+01
 -15.744  0.7311E+01  0.1237E+01
 -15.734  0.7643E+01  0.1314E+01
 -15.724  0.7915E+01  0.1393E+01
 -15.714  0.8057E+01  0.1473E+01
 -15.704  0.8020E+01  0.1554E+01
 -15.694  0.7783E+01  0.1631E+01
 -15.684  0.7364E+01  0.1705E+01
 -15.674  0.6813E+01  0.1773E+01
 -15.664  0.6207E+01  0.1835E+01
 -15.654  0.5640E+01  0.1892E+01
 -15.644  0.5203E+01  0.1944E+01
 -15.634  0.4974E+01  0.1993E+01
 -15.624  0.5005E+01  0.2043E+01
 -15.614  0.5313E+01  0.2097E+01
 -15.604  0.5870E+01  0.2155E+01
 -15.594  0.6613E+01  0.2221E+01
 -15.584  0.7444E+01  0.2296E+01
 -15.574  0.8250E+01  0.2378E+01
 -15.564  0.8915E+01  0.2468E+01
 -15.554  0.9343E+01  0.2561E+01
 -15.544  0.9472E+01  0.2656E+01
 -15.534  0.9283E+01  0.2749E+01
 -15.524  0.8803E+01  0.2837E+01
 -15.514  0.8096E+01  0.2918E+01
 -15.504  0.7253E+01  0.2990E+01
 -15.494  0.6374E+01  0.3054E+01
 -15.484  0.5552E+01  0.3109E+01
 -15.474  0.4869E+01  0.3158E+01
 -15.464  0.4384E+01  0.3202E+01
 -15.454  0.4136E+01  0.3243E+01
 -15.444  0.4144E+01  0.3285E+01
 -15.434  0.4411E+01  0.3329E+01
 -15.424  0.4922E+01  0.3378E+01
 -15.414  0.5645E+01  0.3434E+01
 -15.404  0.6530E+01  0.3500E+01
 -15.394  0.7507E+01  0.3575E+01
 -15.384  0.8493E+01  0.3660E+01
 -15.374  0.9396E+01  0.3754E+01
 -15.364  0.1013E+02  0.3855E+01
 -15.354  0.1061E+02  0.3961E+01
 -15.344  0.1079E+02  0.4069E+01
 -15.334  0.1064E+02  0.4175E+01
 -15.324  0.1016E+02  0.4277E+01
 -15.314  0.9408E+01  0.4371E+01
 -15.304  0.8440E+01  0.4455E+01
 -15.294  0.7349E+01  0.4529E+01
 -15.284  0.6233E+01  0.4591E+01
 -15.274  0.5190E+01  0.4643E+01
 -15.264  0.4306E+01  0.4686E+01
 -15.254  0.3650E+01  0.4723E+01
 -15.244  0.3265E+01  0.4755E+01
 -15.234  0.3170E+01  0.4787E+01
 -15.224  0.3361E+01  0.4821E+01
 -15.214  0.3812E+01  0.4859E+01
 -15.204  0.4483E+01  0.4904E+01
 -15.194  0.5325E+01  0.4957E+01
 -15.184  0.6275E+01  0.5020E+01
 -15.174  0.7268E+01  0.5092E+01
 -15.164  0.8231E+01  0.5175E+01
 -15.154  0.9096E+01  0.5266E+01
 -15.144  0.9800E+01  0.5364E+01
 -15.134  0.1030E+02  0.5467E+01
 -15.124  0.1057E+02  0.5572E+01
 -15.114  0.1062E+02  0.5678E+01
 -15.104  0.1047E+02  0.5783E+01
 -15.094  0.1019E+02  0.5885E+01
 -15.084  0.9809E+01  0.5983E+01
 -15.074  0.9386E+01  0.6077E+01
 -15.064  0.8940E+01  0.6166E+01
 -15.054  0.8473E+01  0.6251E+01
 -15.044  0.7964E+01  0.6331E+01
 -15.034  0.7381E+01  0.6405E+01
 -15.024  0.6701E+01  0.6472E+01
 -15.014  0.5919E+01  0.6531E+01
 -15.004  0.5061E+01  0.6581E+01
 -14.994  0.4184E+01  0.6623E+01
 -14.984  0.3373E+01  0.6657E+01
 -14.974  0.2726E+01  0.6684E+01
 -14.964  0.2336E+01  0.6708E+01
 -14.954  0.2281E+01  0.6730E+01
 -14.944  0.2602E+01  0.6756E+01
 -14.934  0.3303E+01  0.6789E+01
 -14.924  0.4344E+01  0.6833E+01
 -14.914  0.5648E+01  0.6889E+01
 -14.904  0.7108E+01  0.6960E+01
 -14.894  0.8603E+01  0.7046E+01
 -14.884  0.1000E+02  0.7146E+01
 -14.874  0.1120E+02  0.7258E+01
 -14.864  0.1209E+02  0.7379E+01
 -14.854  0.1261E+02  0.7505E+01
 -14.844  0.1273E+02  0.7633E+01
 -14.834  0.1246E+02  0.7757E+01
 -14.824  0.1185E+02  0.7876E+01
 -14.814  0.1096E+02  0.7986E+01
 -14.804  0.9912E+01  0.8085E+01
 -14.794  0.8810E+01  0.8173E+01
 -14.784  0.7772E+01  0.8250E+01
 -14.774  0.6902E+01  0.8319E+01
 -14.764  0.6270E+01  0.8382E+01
 -14.754  0.5903E+01  0.8441E+01
 -14.744  0.5780E+01  0.8499E+01
 -14.734  0.5835E+01  0.8557E+01
 -14.724  0.5969E+01  0.8617E+01
 -14.714  0.6069E+01  0.8678E+01
 -14.704  0.6036E+01  0.8738E+01
 -14.694  0.5802E+01  0.8796E+01
 -14.684  0.5349E+01  0.8850E+01
 -14.674  0.4717E+01  0.8897E+01
 -14.664  0.3998E+01  0.8937E+01
 -14.654  0.3321E+01  0.8970E+01
 -14.644  0.2830E+01  0.8998E+01
 -14.634  0.2658E+01  0.9025E+01
 -14.624  0.2904E+01  0.9054E+01
 -14.614  0.3611E+01  0.9090E+01
 -14.604  0.4758E+01  0.9138E+01
 -14.594  0.6258E+01  0.9200E+01
 -14.584  0.7975E+01  0.9280E+01
 -14.574  0.9735E+01  0.9377E+01
 -14.564  0.1136E+02  0.9491E+01
 -14.554  0.1270E+02  0.9618E+01
 -14.544  0.1363E+02  0.9754E+01
 -14.534  0.1411E+02  0.9895E+01
 -14.524  0.1414E+02  0.1004E+02
 -14.514  0.1377E+02  0.1017E+02
 -14.504  0.1307E+02  0.1031E+02
 -14.494  0.1216E+02  0.1043E+02
 -14.484  0.1111E+02  0.1054E+02
 -14.474  0.9983E+01  0.1064E+02
 -14.464  0.8840E+01  0.1073E+02
 -14.454  0.7712E+01  0.1080E+02
 -14.444  0.6635E+01  0.1087E+02
 -14.434  0.5645E+01  0.1093E+02
 -14.424  0.4790E+01  0.1097E+02
 -14.414  0.4120E+01  0.1102E+02
 -14.404  0.3679E+01  0.1105E+02
 -14.394  0.3492E+01  0.1109E+02
 -14.384  0.3556E+01  0.1112E+02
 -14.374  0.3831E+01  0.1116E+02
 -14.364  0.4251E+01  0.1120E+02
 -14.354  0.4728E+01  0.1125E+02
 -14.344  0.5172E+01  0.1130E+02
 -14.334  0.5515E+01  0.1136E+02
 -14.324  0.5718E+01  0.1141E+02
 -14.314  0.5788E+01  0.1147E+02
 -14.304  0.5770E+01  0.1153E+02
 -14.294  0.5743E+01  0.1159E+02
 -14.284  0.5798E+01  0.1165E+02
 -14.274  0.6022E+01  0.1171E+02
 -14.264  0.6474E+01  0.1177E+02
 -14.254  0.7175E+01  0.1184E+02
 -14.244  0.8100E+01  0.1192E+02
 -14.234  0.9183E+01  0.1201E+02
 -14.224  0.1033E+02  0.1212E+02
 -14.214  0.1141E+02  0.1223E+02
 -14.204  0.1234E+02  0.1236E+02
 -14.194  0.1301E+02  0.1249E+02
 -14.184  0.1337E+02  0.1262E+02
 -14.174  0.1340E+02  0.1275E+02
 -14.164  0.1312E+02  0.1288E+02
 -14.154  0.1260E+02  0.1301E+02
 -14.144  0.1192E+02  0.1313E+02
 -14.134  0.1117E+02  0.1324E+02
 -14.124  0.1041E+02  0.1335E+02
 -14.114  0.9691E+01  0.1344E+02
 -14.104  0.9035E+01  0.1353E+02
 -14.094  0.8419E+01  0.1362E+02
 -14.084  0.7804E+01  0.1370E+02
 -14.074  0.7143E+01  0.1377E+02
 -14.064  0.6403E+01  0.1383E+02
 -14.054  0.5577E+01  0.1389E+02
 -14.044  0.4693E+01  0.1393E+02
 -14.034  0.3811E+01  0.1397E+02
 -14.024  0.3017E+01  0.1400E+02
 -14.014  0.2404E+01  0.1403E+02
 -14.004  0.2053E+01  0.1405E+02
 -13.994  0.2022E+01  0.1407E+02
 -13.984  0.2331E+01  0.1409E+02
 -13.974  0.2961E+01  0.1412E+02
 -13.964  0.3859E+01  0.1416E+02
 -13.954  0.4947E+01  0.1421E+02
 -13.944  0.6137E+01  0.1427E+02
 -13.934  0.7342E+01  0.1434E+02
 -13.924  0.8492E+01  0.1443E+02
 -13.914  0.9532E+01  0.1452E+02
 -13.904  0.1043E+02  0.1463E+02
 -13.894  0.1117E+02  0.1474E+02
 -13.884  0.1175E+02  0.1486E+02
 -13.874  0.1217E+02  0.1498E+02
 -13.864  0.1245E+02  0.1510E+02
 -13.854  0.1260E+02  0.1523E+02
 -13.844  0.1263E+02  0.1535E+02
 -13.834  0.1257E+02  0.1548E+02
 -13.824  0.1243E+02  0.1560E+02
 -13.814  0.1224E+02  0.1573E+02
 -13.804  0.1199E+02  0.1585E+02
 -13.794  0.1169E+02  0.1596E+02
 -13.784  0.1135E+02  0.1608E+02
 -13.774  0.1096E+02  0.1619E+02
 -13.764  0.1053E+02  0.1629E+02
 -13.754  0.1006E+02  0.1639E+02
 -13.744  0.9565E+01  0.1649E+02
 -13.734  0.9078E+01  0.1658E+02
 -13.724  0.8613E+01  0.1667E+02
 -13.714  0.8180E+01  0.1675E+02
 -13.704  0.7779E+01  0.1682E+02
 -13.694  0.7392E+01  0.1690E+02
 -13.684  0.6989E+01  0.1697E+02
 -13.674  0.6536E+01  0.1703E+02
 -13.664  0.6005E+01  0.1709E+02
 -13.654  0.5382E+01  0.1715E+02
 -13.644  0.4681E+01  0.1719E+02
 -13.634  0.3944E+01  0.1723E+02
 -13.624  0.3242E+01  0.1727E+02
 -13.614  0.2674E+01  0.1729E+02
 -13.604  0.2345E+01  0.1732E+02
 -13.594  0.2361E+01  0.1734E+02
 -13.584  0.2803E+01  0.1737E+02
 -13.574  0.3710E+01  0.1741E+02
 -13.564  0.5072E+01  0.1746E+02
 -13.554  0.6815E+01  0.1752E+02
 -13.544  0.8812E+01  0.1761E+02
 -13.534  0.1089E+02  0.1772E+02
 -13.524  0.1286E+02  0.1785E+02
 -13.514  0.1455E+02  0.1800E+02
 -13.504  0.1578E+02  0.1815E+02
 -13.494  0.1649E+02  0.1832E+02
 -13.484  0.1665E+02  0.1848E+02
 -13.474  0.1630E+02  0.1865E+02
 -13.464  0.1557E+02  0.1880E+02
 -13.454  0.1460E+02  0.1895E+02
 -13.444  0.1355E+02  0.1908E+02
 -13.434  0.1256E+02  0.1921E+02
 -13.424  0.1173E+02  0.1933E+02
 -13.414  0.1110E+02  0.1944E+02
 -13.404  0.1069E+02  0.1955E+02
 -13.394  0.1044E+02  0.1965E+02
 -13.384  0.1029E+02  0.1975E+02
 -13.374  0.1017E+02  0.1985E+02
 -13.364  0.1002E+02  0.1995E+02
 -13.354  0.9822E+01  0.2005E+02
 -13.344  0.9564E+01  0.2015E+02
 -13.334  0.9260E+01  0.2024E+02
 -13.324  0.8930E+01  0.2033E+02
 -13.314  0.8586E+01  0.2042E+02
 -13.304  0.8226E+01  0.2050E+02
 -13.294  0.7834E+01  0.2058E+02
 -13.284  0.7387E+01  0.2065E+02
 -13.274  0.6867E+01  0.2072E+02
 -13.264  0.6281E+01  0.2078E+02
 -13.254  0.5665E+01  0.2084E+02
 -13.244  0.5091E+01  0.2089E+02
 -13.234  0.4662E+01  0.2094E+02
 -13.224  0.4491E+01  0.2098E+02
 -13.214  0.4684E+01  0.2103E+02
 -13.204  0.5315E+01  0.2108E+02
 -13.194  0.6409E+01  0.2115E+02
 -13.184  0.7932E+01  0.2122E+02
 -13.174  0.9794E+01  0.2132E+02
 -13.164  0.1186E+02  0.2144E+02
 -13.154  0.1396E+02  0.2158E+02
 -13.144  0.1592E+02  0.2174E+02
 -13.134  0.1761E+02  0.2192E+02
 -13.124  0.1890E+02  0.2211E+02
 -13.114  0.1973E+02  0.2230E+02
 -13.104  0.2010E+02  0.2250E+02
 -13.094  0.2002E+02  0.2270E+02
 -13.084  0.1959E+02  0.2290E+02
 -13.074  0.1888E+02  0.2309E+02
 -13.064  0.1801E+02  0.2327E+02
 -13.054  0.1707E+02  0.2344E+02
 -13.044  0.1615E+02  0.2360E+02
 -13.034  0.1532E+02  0.2375E+02
 -13.024  0.1463E+02  0.2390E+02
 -13.014  0.1410E+02  0.2404E+02
 -13.004  0.1374E+02  0.2418E+02
 -12.994  0.1354E+02  0.2431E+02
 -12.984  0.1346E+02  0.2445E+02
 -12.974  0.1345E+02  0.2458E+02
 -12.964  0.1345E+02  0.2472E+02
 -12.954  0.1341E+02  0.2485E+02
 -12.944  0.1325E+02  0.2498E+02
 -12.934  0.1295E+02  0.2511E+02
 -12.924  0.1251E+02  0.2524E+02
 -12.914  0.1198E+02  0.2536E+02
 -12.904  0.1144E+02  0.2547E+02
 -12.894  0.1104E+02  0.2558E+02
 -12.884  0.1092E+02  0.2569E+02
 -12.874  0.1124E+02  0.2580E+02
 -12.864  0.1212E+02  0.2593E+02
 -12.854  0.1360E+02  0.2606E+02
 -12.844  0.1564E+02  0.2622E+02
 -12.834  0.1809E+02  0.2640E+02
 -12.824  0.2072E+02  0.2661E+02
 -12.814  0.2323E+02  0.2684E+02
 -12.804  0.2529E+02  0.2709E+02
 -12.794  0.2662E+02  0.2736E+02
 -12.784  0.2700E+02  0.2763E+02
 -12.774  0.2633E+02  0.2789E+02
 -12.764  0.2465E+02  0.2814E+02
 -12.754  0.2210E+02  0.2836E+02
 -12.744  0.1896E+02  0.2855E+02
 -12.734  0.1552E+02  0.2870E+02
 -12.724  0.1210E+02  0.2882E+02
 -12.714  0.8963E+01  0.2891E+02
 -12.704  0.6310E+01  0.2898E+02
 -12.694  0.4258E+01  0.2902E+02
 -12.684  0.2842E+01  0.2905E+02
 -12.674  0.2040E+01  0.2907E+02
 -12.664  0.1788E+01  0.2909E+02
 -12.654  0.2010E+01  0.2911E+02
 -12.644  0.2629E+01  0.2913E+02
 -12.634  0.3578E+01  0.2917E+02
 -12.624  0.4797E+01  0.2922E+02
 -12.614  0.6227E+01  0.2928E+02
 -12.604  0.7800E+01  0.2936E+02
 -12.594  0.9432E+01  0.2945E+02
 -12.584  0.1102E+02  0.2956E+02
 -12.574  0.1244E+02  0.2969E+02
 -12.564  0.1359E+02  0.2982E+02
 -12.554  0.1434E+02  0.2997E+02
 -12.544  0.1464E+02  0.3011E+02
 -12.534  0.1444E+02  0.3026E+02
 -12.524  0.1377E+02  0.3039E+02
 -12.514  0.1270E+02  0.3052E+02
 -12.504  0.1135E+02  0.3063E+02
 -12.494  0.9861E+01  0.3073E+02
 -12.484  0.8383E+01  0.3082E+02
 -12.474  0.7054E+01  0.3089E+02
 -12.464  0.5981E+01  0.3095E+02
 -12.454  0.5235E+01  0.3100E+02
 -12.444  0.4840E+01  0.3105E+02
 -12.434  0.4783E+01  0.3110E+02
 -12.424  0.5016E+01  0.3115E+02
 -12.414  0.5465E+01  0.3120E+02
 -12.404  0.6040E+01  0.3126E+02
 -12.394  0.6645E+01  0.3133E+02
 -12.384  0.7185E+01  0.3140E+02
 -12.374  0.7577E+01  0.3147E+02
 -12.364  0.7755E+01  0.3155E+02
 -12.354  0.7681E+01  0.3163E+02
 -12.344  0.7348E+01  0.3170E+02
 -12.334  0.6777E+01  0.3177E+02
 -12.324  0.6016E+01  0.3183E+02
 -12.314  0.5129E+01  0.3188E+02
 -12.304  0.4188E+01  0.3192E+02
 -12.294  0.3263E+01  0.3196E+02
 -12.284  0.2410E+01  0.3198E+02
 -12.274  0.1668E+01  0.3200E+02
 -12.264  0.1059E+01  0.3201E+02
 -12.254  0.5876E+00  0.3201E+02
 -12.244  0.2442E+00  0.3202E+02
 -12.234  0.1161E-01  0.3202E+02
 -12.224 -0.1317E+00  0.3201E+02
 -12.214 -0.2081E+00  0.3201E+02
 -12.204 -0.2378E+00  0.3201E+02
 -12.194 -0.2385E+00  0.3201E+02
 -12.184 -0.2242E+00  0.3201E+02
 -12.174 -0.2057E+00  0.3200E+02
 -12.164 -0.1906E+00  0.3200E+02
 -12.154 -0.1837E+00  0.3200E+02
 -12.144 -0.1870E+00  0.3200E+02
 -12.134 -0.1996E+00  0.3200E+02
 -12.124 -0.2175E+00  0.3199E+02
 -12.114 -0.2333E+00  0.3199E+02
 -12.104 -0.2360E+00  0.3199E+02
 -12.094 -0.2113E+00  0.3199E+02
 -12.084 -0.1429E+00  0.3199E+02
 -12.074 -0.1355E-01  0.3199E+02
 -12.064  0.1917E+00  0.3199E+02
 -12.054  0.4833E+00  0.3199E+02
 -12.044  0.8642E+00  0.3200E+02
 -12.034  0.1329E+01  0.3201E+02
 -12.024  0.1863E+01  0.3203E+02
 -12.014  0.2444E+01  0.3206E+02
 -12.004  0.3048E+01  0.3209E+02
 -11.994  0.3649E+01  0.3212E+02
 -11.984  0.4227E+01  0.3217E+02
 -11.974  0.4766E+01  0.3221E+02
 -11.964  0.5258E+01  0.3227E+02
 -11.954  0.5695E+01  0.3232E+02
 -11.944  0.6070E+01  0.3238E+02
 -11.934  0.6374E+01  0.3245E+02
 -11.924  0.6590E+01  0.3251E+02
 -11.914  0.6703E+01  0.3258E+02
 -11.904  0.6700E+01  0.3265E+02
 -11.894  0.6580E+01  0.3271E+02
 -11.884  0.6360E+01  0.3278E+02
 -11.874  0.6076E+01  0.3284E+02
 -11.864  0.5783E+01  0.3290E+02
 -11.854  0.5545E+01  0.3295E+02
 -11.844  0.5424E+01  0.3301E+02
 -11.834  0.5461E+01  0.3306E+02
 -11.824  0.5671E+01  0.3312E+02
 -11.814  0.6034E+01  0.3318E+02
 -11.804  0.6496E+01  0.3324E+02
 -11.794  0.6978E+01  0.3331E+02
 -11.784  0.7396E+01  0.3339E+02
 -11.774  0.7669E+01  0.3346E+02
 -11.764  0.7741E+01  0.3354E+02
 -11.754  0.7585E+01  0.3362E+02
 -11.744  0.7210E+01  0.3369E+02
 -11.734  0.6656E+01  0.3375E+02
 -11.724  0.5990E+01  0.3381E+02
 -11.714  0.5293E+01  0.3387E+02
 -11.704  0.4655E+01  0.3391E+02
 -11.694  0.4160E+01  0.3396E+02
 -11.684  0.3882E+01  0.3399E+02
 -11.674  0.3870E+01  0.3403E+02
 -11.664  0.4147E+01  0.3407E+02
 -11.654  0.4700E+01  0.3412E+02
 -11.644  0.5478E+01  0.3418E+02
 -11.634  0.6398E+01  0.3424E+02
 -11.624  0.7350E+01  0.3431E+02
 -11.614  0.8213E+01  0.3440E+02
 -11.604  0.8877E+01  0.3448E+02
 -11.594  0.9253E+01  0.3458E+02
 -11.584  0.9296E+01  0.3467E+02
 -11.574  0.9006E+01  0.3476E+02
 -11.564  0.8429E+01  0.3484E+02
 -11.554  0.7645E+01  0.3492E+02
 -11.544  0.6752E+01  0.3499E+02
 -11.534  0.5849E+01  0.3505E+02
 -11.524  0.5019E+01  0.3510E+02
 -11.514  0.4323E+01  0.3514E+02
 -11.504  0.3795E+01  0.3518E+02
 -11.494  0.3451E+01  0.3521E+02
 -11.484  0.3294E+01  0.3525E+02
 -11.474  0.3325E+01  0.3528E+02
 -11.464  0.3542E+01  0.3531E+02
 -11.454  0.3945E+01  0.3535E+02
 -11.444  0.4527E+01  0.3540E+02
 -11.434  0.5272E+01  0.3545E+02
 -11.424  0.6144E+01  0.3551E+02
 -11.414  0.7091E+01  0.3558E+02
 -11.404  0.8045E+01  0.3566E+02
 -11.394  0.8926E+01  0.3575E+02
 -11.384  0.9656E+01  0.3585E+02
 -11.374  0.1017E+02  0.3595E+02
 -11.364  0.1041E+02  0.3606E+02
 -11.354  0.1035E+02  0.3616E+02
 -11.344  0.9983E+01  0.3626E+02
 -11.334  0.9341E+01  0.3635E+02
 -11.324  0.8470E+01  0.3644E+02
 -11.314  0.7439E+01  0.3651E+02
 -11.304  0.6331E+01  0.3658E+02
 -11.294  0.5234E+01  0.3663E+02
 -11.284  0.4236E+01  0.3667E+02
 -11.274  0.3408E+01  0.3670E+02
 -11.264  0.2805E+01  0.3673E+02
 -11.254  0.2455E+01  0.3676E+02
 -11.244  0.2363E+01  0.3678E+02
 -11.234  0.2514E+01  0.3681E+02
 -11.224  0.2882E+01  0.3683E+02
 -11.214  0.3431E+01  0.3687E+02
 -11.204  0.4128E+01  0.3691E+02
 -11.194  0.4937E+01  0.3696E+02
 -11.184  0.5823E+01  0.3702E+02
 -11.174  0.6745E+01  0.3709E+02
 -11.164  0.7655E+01  0.3716E+02
 -11.154  0.8497E+01  0.3725E+02
 -11.144  0.9212E+01  0.3734E+02
 -11.134  0.9747E+01  0.3744E+02
 -11.124  0.1007E+02  0.3754E+02
 -11.114  0.1016E+02  0.3764E+02
 -11.104  0.1006E+02  0.3774E+02
 -11.094  0.9793E+01  0.3784E+02
 -11.084  0.9435E+01  0.3793E+02
 -11.074  0.9041E+01  0.3802E+02
 -11.064  0.8656E+01  0.3811E+02
 -11.054  0.8296E+01  0.3819E+02
 -11.044  0.7945E+01  0.3827E+02
 -11.034  0.7566E+01  0.3835E+02
 -11.024  0.7109E+01  0.3842E+02
 -11.014  0.6534E+01  0.3848E+02
 -11.004  0.5824E+01  0.3854E+02
 -10.994  0.4992E+01  0.3859E+02
 -10.984  0.4091E+01  0.3863E+02
 -10.974  0.3196E+01  0.3866E+02
 -10.964  0.2403E+01  0.3869E+02
 -10.954  0.1805E+01  0.3871E+02
 -10.944  0.1481E+01  0.3872E+02
 -10.934  0.1486E+01  0.3874E+02
 -10.924  0.1842E+01  0.3875E+02
 -10.914  0.2541E+01  0.3878E+02
 -10.904  0.3540E+01  0.3881E+02
 -10.894  0.4773E+01  0.3886E+02
 -10.884  0.6153E+01  0.3892E+02
 -10.874  0.7585E+01  0.3900E+02
 -10.864  0.8966E+01  0.3909E+02
 -10.854  0.1020E+02  0.3919E+02
 -10.844  0.1121E+02  0.3930E+02
 -10.834  0.1192E+02  0.3942E+02
 -10.824  0.1229E+02  0.3955E+02
 -10.814  0.1231E+02  0.3967E+02
 -10.804  0.1198E+02  0.3979E+02
 -10.794  0.1136E+02  0.3990E+02
 -10.784  0.1051E+02  0.4001E+02
 -10.774  0.9532E+01  0.4010E+02
 -10.764  0.8527E+01  0.4019E+02
 -10.754  0.7604E+01  0.4026E+02
 -10.744  0.6852E+01  0.4033E+02
 -10.734  0.6332E+01  0.4040E+02
 -10.724  0.6059E+01  0.4046E+02
 -10.714  0.6005E+01  0.4052E+02
 -10.704  0.6096E+01  0.4058E+02
 -10.694  0.6230E+01  0.4064E+02
 -10.684  0.6298E+01  0.4070E+02
 -10.674  0.6202E+01  0.4076E+02
 -10.664  0.5878E+01  0.4082E+02
 -10.654  0.5312E+01  0.4088E+02
 -10.644  0.4540E+01  0.4092E+02
 -10.634  0.3648E+01  0.4096E+02
 -10.624  0.2754E+01  0.4099E+02
 -10.614  0.1997E+01  0.4101E+02
 -10.604  0.1508E+01  0.4102E+02
 -10.594  0.1399E+01  0.4104E+02
 -10.584  0.1740E+01  0.4105E+02
 -10.574  0.2553E+01  0.4108E+02
 -10.564  0.3803E+01  0.4112E+02
 -10.554  0.5406E+01  0.4117E+02
 -10.544  0.7231E+01  0.4124E+02
 -10.534  0.9120E+01  0.4133E+02
 -10.524  0.1091E+02  0.4144E+02
 -10.514  0.1244E+02  0.4157E+02
 -10.504  0.1361E+02  0.4170E+02
 -10.494  0.1432E+02  0.4185E+02
 -10.484  0.1458E+02  0.4199E+02
 -10.474  0.1440E+02  0.4214E+02
 -10.464  0.1384E+02  0.4227E+02
 -10.454  0.1300E+02  0.4240E+02
 -10.444  0.1198E+02  0.4252E+02
 -10.434  0.1086E+02  0.4263E+02
 -10.424  0.9736E+01  0.4273E+02
 -10.414  0.8685E+01  0.4282E+02
 -10.404  0.7769E+01  0.4290E+02
 -10.394  0.7036E+01  0.4297E+02
 -10.384  0.6512E+01  0.4303E+02
 -10.374  0.6200E+01  0.4309E+02
 -10.364  0.6075E+01  0.4315E+02
 -10.354  0.6082E+01  0.4321E+02
 -10.344  0.6144E+01  0.4328E+02
 -10.334  0.6174E+01  0.4334E+02
 -10.324  0.6092E+01  0.4340E+02
 -10.314  0.5839E+01  0.4346E+02
 -10.304  0.5395E+01  0.4351E+02
 -10.294  0.4783E+01  0.4356E+02
 -10.284  0.4070E+01  0.4360E+02
 -10.274  0.3356E+01  0.4363E+02
 -10.264  0.2759E+01  0.4366E+02
 -10.254  0.2398E+01  0.4368E+02
 -10.244  0.2374E+01  0.4371E+02
 -10.234  0.2758E+01  0.4374E+02
 -10.224  0.3582E+01  0.4377E+02
 -10.214  0.4834E+01  0.4382E+02
 -10.204  0.6459E+01  0.4388E+02
 -10.194  0.8370E+01  0.4397E+02
 -10.184  0.1046E+02  0.4407E+02
 -10.174  0.1259E+02  0.4420E+02
 -10.164  0.1465E+02  0.4434E+02
 -10.154  0.1652E+02  0.4451E+02
 -10.144  0.1810E+02  0.4469E+02
 -10.134  0.1933E+02  0.4488E+02
 -10.124  0.2016E+02  0.4509E+02
 -10.114  0.2056E+02  0.4529E+02
 -10.104  0.2054E+02  0.4550E+02
 -10.094  0.2010E+02  0.4570E+02
 -10.084  0.1927E+02  0.4589E+02
 -10.074  0.1807E+02  0.4607E+02
 -10.064  0.1655E+02  0.4624E+02
 -10.054  0.1479E+02  0.4638E+02
 -10.044  0.1288E+02  0.4651E+02
 -10.034  0.1091E+02  0.4662E+02
 -10.024  0.9026E+01  0.4671E+02
 -10.014  0.7357E+01  0.4679E+02
 -10.004  0.6025E+01  0.4685E+02
  -9.994  0.5134E+01  0.4690E+02
  -9.984  0.4748E+01  0.4695E+02
  -9.974  0.4887E+01  0.4699E+02
  -9.964  0.5524E+01  0.4705E+02
  -9.954  0.6588E+01  0.4712E+02
  -9.944  0.7972E+01  0.4720E+02
  -9.934  0.9549E+01  0.4729E+02
  -9.924  0.1119E+02  0.4740E+02
  -9.914  0.1276E+02  0.4753E+02
  -9.904  0.1418E+02  0.4767E+02
  -9.894  0.1539E+02  0.4783E+02
  -9.884  0.1636E+02  0.4799E+02
  -9.874  0.1713E+02  0.4816E+02
  -9.864  0.1776E+02  0.4834E+02
  -9.854  0.1831E+02  0.4852E+02
  -9.844  0.1885E+02  0.4871E+02
  -9.834  0.1944E+02  0.4890E+02
  -9.824  0.2009E+02  0.4911E+02
  -9.814  0.2079E+02  0.4931E+02
  -9.804  0.2147E+02  0.4953E+02
  -9.794  0.2205E+02  0.4975E+02
  -9.784  0.2244E+02  0.4997E+02
  -9.774  0.2254E+02  0.5020E+02
  -9.764  0.2231E+02  0.5042E+02
  -9.754  0.2169E+02  0.5064E+02
  -9.744  0.2069E+02  0.5085E+02
  -9.734  0.1935E+02  0.5104E+02
  -9.724  0.1773E+02  0.5122E+02
  -9.714  0.1593E+02  0.5138E+02
  -9.704  0.1405E+02  0.5152E+02
  -9.694  0.1220E+02  0.5164E+02
  -9.684  0.1049E+02  0.5174E+02
  -9.674  0.9032E+01  0.5183E+02
  -9.664  0.7900E+01  0.5191E+02
  -9.654  0.7154E+01  0.5198E+02
  -9.644  0.6821E+01  0.5205E+02
  -9.634  0.6895E+01  0.5212E+02
  -9.624  0.7338E+01  0.5219E+02
  -9.614  0.8090E+01  0.5227E+02
  -9.604  0.9075E+01  0.5237E+02
  -9.594  0.1021E+02  0.5247E+02
  -9.584  0.1143E+02  0.5258E+02
  -9.574  0.1266E+02  0.5271E+02
  -9.564  0.1386E+02  0.5285E+02
  -9.554  0.1500E+02  0.5300E+02
  -9.544  0.1607E+02  0.5316E+02
  -9.534  0.1706E+02  0.5333E+02
  -9.524  0.1796E+02  0.5351E+02
  -9.514  0.1876E+02  0.5370E+02
  -9.504  0.1943E+02  0.5389E+02
  -9.494  0.1993E+02  0.5409E+02
  -9.484  0.2021E+02  0.5429E+02
  -9.474  0.2024E+02  0.5449E+02
  -9.464  0.1995E+02  0.5469E+02
  -9.454  0.1933E+02  0.5489E+02
  -9.444  0.1837E+02  0.5507E+02
  -9.434  0.1711E+02  0.5524E+02
  -9.424  0.1563E+02  0.5540E+02
  -9.414  0.1405E+02  0.5554E+02
  -9.404  0.1252E+02  0.5566E+02
  -9.394  0.1122E+02  0.5578E+02
  -9.384  0.1031E+02  0.5588E+02
  -9.374  0.9964E+01  0.5598E+02
  -9.364  0.1028E+02  0.5608E+02
  -9.354  0.1132E+02  0.5619E+02
  -9.344  0.1304E+02  0.5632E+02
  -9.334  0.1531E+02  0.5648E+02
  -9.324  0.1794E+02  0.5666E+02
  -9.314  0.2066E+02  0.5686E+02
  -9.304  0.2318E+02  0.5710E+02
  -9.294  0.2520E+02  0.5735E+02
  -9.284  0.2648E+02  0.5761E+02
  -9.274  0.2688E+02  0.5788E+02
  -9.264  0.2634E+02  0.5814E+02
  -9.254  0.2493E+02  0.5839E+02
  -9.244  0.2281E+02  0.5862E+02
  -9.234  0.2023E+02  0.5882E+02
  -9.224  0.1746E+02  0.5900E+02
  -9.214  0.1476E+02  0.5915E+02
  -9.204  0.1236E+02  0.5927E+02
  -9.194  0.1041E+02  0.5937E+02
  -9.184  0.8989E+01  0.5946E+02
  -9.174  0.8104E+01  0.5955E+02
  -9.164  0.7707E+01  0.5962E+02
  -9.154  0.7717E+01  0.5970E+02
  -9.144  0.8043E+01  0.5978E+02
  -9.134  0.8601E+01  0.5987E+02
  -9.124  0.9329E+01  0.5996E+02
  -9.114  0.1018E+02  0.6006E+02
  -9.104  0.1112E+02  0.6017E+02
  -9.094  0.1210E+02  0.6029E+02
  -9.084  0.1306E+02  0.6042E+02
  -9.074  0.1393E+02  0.6056E+02
  -9.064  0.1461E+02  0.6071E+02
  -9.054  0.1500E+02  0.6086E+02
  -9.044  0.1504E+02  0.6101E+02
  -9.034  0.1470E+02  0.6116E+02
  -9.024  0.1399E+02  0.6130E+02
  -9.014  0.1299E+02  0.6143E+02
  -9.004  0.1183E+02  0.6154E+02
  -8.994  0.1064E+02  0.6165E+02
  -8.984  0.9539E+01  0.6175E+02
  -8.974  0.8633E+01  0.6183E+02
  -8.964  0.7970E+01  0.6191E+02
  -8.954  0.7555E+01  0.6199E+02
  -8.944  0.7359E+01  0.6206E+02
  -8.934  0.7330E+01  0.6213E+02
  -8.924  0.7408E+01  0.6221E+02
  -8.914  0.7537E+01  0.6228E+02
  -8.904  0.7670E+01  0.6236E+02
  -8.894  0.7762E+01  0.6244E+02
  -8.884  0.7775E+01  0.6252E+02
  -8.874  0.7671E+01  0.6259E+02
  -8.864  0.7417E+01  0.6267E+02
  -8.854  0.6995E+01  0.6274E+02
  -8.844  0.6406E+01  0.6280E+02
  -8.834  0.5682E+01  0.6286E+02
  -8.824  0.4889E+01  0.6291E+02
  -8.814  0.4121E+01  0.6295E+02
  -8.804  0.3490E+01  0.6298E+02
  -8.794  0.3112E+01  0.6301E+02
  -8.784  0.3088E+01  0.6304E+02
  -8.774  0.3488E+01  0.6308E+02
  -8.764  0.4343E+01  0.6312E+02
  -8.754  0.5636E+01  0.6318E+02
  -8.744  0.7309E+01  0.6325E+02
  -8.734  0.9265E+01  0.6335E+02
  -8.724  0.1138E+02  0.6346E+02
  -8.714  0.1352E+02  0.6359E+02
  -8.704  0.1553E+02  0.6375E+02
  -8.694  0.1727E+02  0.6392E+02
  -8.684  0.1862E+02  0.6411E+02
  -8.674  0.1948E+02  0.6430E+02
  -8.664  0.1978E+02  0.6450E+02
  -8.654  0.1950E+02  0.6470E+02
  -8.644  0.1865E+02  0.6488E+02
  -8.634  0.1729E+02  0.6506E+02
  -8.624  0.1553E+02  0.6521E+02
  -8.614  0.1348E+02  0.6535E+02
  -8.604  0.1131E+02  0.6546E+02
  -8.594  0.9151E+01  0.6555E+02
  -8.584  0.7140E+01  0.6562E+02
  -8.574  0.5382E+01  0.6568E+02
  -8.564  0.3949E+01  0.6571E+02
  -8.554  0.2871E+01  0.6574E+02
  -8.544  0.2136E+01  0.6576E+02
  -8.534  0.1701E+01  0.6578E+02
  -8.524  0.1500E+01  0.6580E+02
  -8.514  0.1461E+01  0.6581E+02
  -8.504  0.1523E+01  0.6583E+02
  -8.494  0.1651E+01  0.6584E+02
  -8.484  0.1847E+01  0.6586E+02
  -8.474  0.2153E+01  0.6588E+02
  -8.464  0.2647E+01  0.6591E+02
  -8.454  0.3422E+01  0.6594E+02
  -8.444  0.4570E+01  0.6599E+02
  -8.434  0.6151E+01  0.6605E+02
  -8.424  0.8178E+01  0.6613E+02
  -8.414  0.1060E+02  0.6624E+02
  -8.404  0.1331E+02  0.6637E+02
  -8.394  0.1616E+02  0.6653E+02
  -8.384  0.1896E+02  0.6672E+02
  -8.374  0.2155E+02  0.6694E+02
  -8.364  0.2377E+02  0.6718E+02
  -8.354  0.2553E+02  0.6743E+02
  -8.344  0.2676E+02  0.6770E+02
  -8.334  0.2743E+02  0.6797E+02
  -8.324  0.2756E+02  0.6825E+02
  -8.314  0.2715E+02  0.6852E+02
  -8.304  0.2625E+02  0.6878E+02
  -8.294  0.2489E+02  0.6903E+02
  -8.284  0.2314E+02  0.6926E+02
  -8.274  0.2109E+02  0.6947E+02
  -8.264  0.1886E+02  0.6966E+02
  -8.254  0.1658E+02  0.6983E+02
  -8.244  0.1439E+02  0.6997E+02
  -8.234  0.1241E+02  0.7010E+02
  -8.224  0.1074E+02  0.7020E+02
  -8.214  0.9415E+01  0.7030E+02
  -8.204  0.8435E+01  0.7038E+02
  -8.194  0.7760E+01  0.7046E+02
  -8.184  0.7329E+01  0.7053E+02
  -8.174  0.7082E+01  0.7060E+02
  -8.164  0.6973E+01  0.7067E+02
  -8.154  0.6977E+01  0.7074E+02
  -8.144  0.7094E+01  0.7081E+02
  -8.134  0.7338E+01  0.7089E+02
  -8.124  0.7730E+01  0.7097E+02
  -8.114  0.8287E+01  0.7105E+02
  -8.104  0.9020E+01  0.7114E+02
  -8.094  0.9928E+01  0.7124E+02
  -8.084  0.1101E+02  0.7135E+02
  -8.074  0.1224E+02  0.7147E+02
  -8.064  0.1361E+02  0.7161E+02
  -8.054  0.1508E+02  0.7176E+02
  -8.044  0.1659E+02  0.7192E+02
  -8.034  0.1806E+02  0.7210E+02
  -8.024  0.1938E+02  0.7230E+02
  -8.014  0.2044E+02  0.7250E+02
  -8.004  0.2112E+02  0.7271E+02
  -7.994  0.2134E+02  0.7293E+02
  -7.984  0.2104E+02  0.7314E+02
  -7.974  0.2025E+02  0.7334E+02
  -7.964  0.1907E+02  0.7353E+02
  -7.954  0.1762E+02  0.7371E+02
  -7.944  0.1610E+02  0.7387E+02
  -7.934  0.1469E+02  0.7401E+02
  -7.924  0.1354E+02  0.7415E+02
  -7.914  0.1276E+02  0.7428E+02
  -7.904  0.1240E+02  0.7440E+02
  -7.894  0.1242E+02  0.7453E+02
  -7.884  0.1271E+02  0.7465E+02
  -7.874  0.1313E+02  0.7478E+02
  -7.864  0.1352E+02  0.7492E+02
  -7.854  0.1373E+02  0.7506E+02
  -7.844  0.1364E+02  0.7519E+02
  -7.834  0.1318E+02  0.7532E+02
  -7.824  0.1231E+02  0.7545E+02
  -7.814  0.1110E+02  0.7556E+02
  -7.804  0.9604E+01  0.7565E+02
  -7.794  0.7952E+01  0.7573E+02
  -7.784  0.6277E+01  0.7580E+02
  -7.774  0.4719E+01  0.7584E+02
  -7.764  0.3414E+01  0.7588E+02
  -7.754  0.2485E+01  0.7590E+02
  -7.744  0.2033E+01  0.7592E+02
  -7.734  0.2130E+01  0.7594E+02
  -7.724  0.2818E+01  0.7597E+02
  -7.714  0.4097E+01  0.7601E+02
  -7.704  0.5924E+01  0.7607E+02
  -7.694  0.8210E+01  0.7616E+02
  -7.684  0.1082E+02  0.7626E+02
  -7.674  0.1359E+02  0.7640E+02
  -7.664  0.1631E+02  0.7656E+02
  -7.654  0.1879E+02  0.7675E+02
  -7.644  0.2083E+02  0.7696E+02
  -7.634  0.2226E+02  0.7718E+02
  -7.624  0.2298E+02  0.7741E+02
  -7.614  0.2294E+02  0.7764E+02
  -7.604  0.2214E+02  0.7786E+02
  -7.594  0.2066E+02  0.7807E+02
  -7.584  0.1863E+02  0.7825E+02
  -7.574  0.1623E+02  0.7842E+02
  -7.564  0.1364E+02  0.7855E+02
  -7.554  0.1106E+02  0.7866E+02
  -7.544  0.8681E+01  0.7875E+02
  -7.534  0.6664E+01  0.7882E+02
  -7.524  0.5152E+01  0.7887E+02
  -7.514  0.4248E+01  0.7891E+02
  -7.504  0.4016E+01  0.7895E+02
  -7.494  0.4467E+01  0.7900E+02
  -7.484  0.5556E+01  0.7905E+02
  -7.474  0.7177E+01  0.7912E+02
  -7.464  0.9161E+01  0.7922E+02
  -7.454  0.1129E+02  0.7933E+02
  -7.444  0.1333E+02  0.7946E+02
  -7.434  0.1505E+02  0.7961E+02
  -7.424  0.1624E+02  0.7977E+02
  -7.414  0.1681E+02  0.7994E+02
  -7.404  0.1673E+02  0.8011E+02
  -7.394  0.1608E+02  0.8027E+02
  -7.384  0.1505E+02  0.8042E+02
  -7.374  0.1388E+02  0.8056E+02
  -7.364  0.1283E+02  0.8069E+02
  -7.354  0.1215E+02  0.8081E+02
  -7.344  0.1202E+02  0.8093E+02
  -7.334  0.1253E+02  0.8106E+02
  -7.324  0.1368E+02  0.8119E+02
  -7.314  0.1535E+02  0.8135E+02
  -7.304  0.1732E+02  0.8152E+02
  -7.294  0.1935E+02  0.8171E+02
  -7.284  0.2116E+02  0.8192E+02
  -7.274  0.2249E+02  0.8215E+02
  -7.264  0.2315E+02  0.8238E+02
  -7.254  0.2300E+02  0.8261E+02
  -7.244  0.2203E+02  0.8283E+02
  -7.234  0.2030E+02  0.8303E+02
  -7.224  0.1795E+02  0.8321E+02
  -7.214  0.1516E+02  0.8336E+02
  -7.204  0.1217E+02  0.8349E+02
  -7.194  0.9181E+01  0.8358E+02
  -7.184  0.6379E+01  0.8364E+02
  -7.174  0.3905E+01  0.8368E+02
  -7.164  0.1851E+01  0.8370E+02
  -7.154  0.2632E+00  0.8370E+02
  -7.144 -0.8483E+00  0.8369E+02
  -7.134 -0.1491E+01  0.8368E+02
  -7.124 -0.1678E+01  0.8366E+02
  -7.114 -0.1418E+01  0.8365E+02
  -7.104 -0.7112E+00  0.8364E+02
  -7.094  0.4421E+00  0.8365E+02
  -7.084  0.2032E+01  0.8367E+02
  -7.074  0.4021E+01  0.8371E+02
  -7.064  0.6335E+01  0.8377E+02
  -7.054  0.8852E+01  0.8386E+02
  -7.044  0.1141E+02  0.8397E+02
  -7.034  0.1382E+02  0.8411E+02
  -7.024  0.1588E+02  0.8427E+02
  -7.014  0.1745E+02  0.8444E+02
  -7.004  0.1841E+02  0.8463E+02
  -6.994  0.1873E+02  0.8481E+02
  -6.984  0.1849E+02  0.8500E+02
  -6.974  0.1782E+02  0.8518E+02
  -6.964  0.1693E+02  0.8535E+02
  -6.954  0.1601E+02  0.8551E+02
  -6.944  0.1529E+02  0.8566E+02
  -6.934  0.1490E+02  0.8581E+02
  -6.924  0.1492E+02  0.8596E+02
  -6.914  0.1534E+02  0.8611E+02
  -6.904  0.1609E+02  0.8627E+02
  -6.894  0.1703E+02  0.8644E+02
  -6.884  0.1799E+02  0.8662E+02
  -6.874  0.1878E+02  0.8681E+02
  -6.864  0.1925E+02  0.8700E+02
  -6.854  0.1930E+02  0.8720E+02
  -6.844  0.1886E+02  0.8738E+02
  -6.834  0.1795E+02  0.8756E+02
  -6.824  0.1663E+02  0.8773E+02
  -6.814  0.1504E+02  0.8788E+02
  -6.804  0.1332E+02  0.8801E+02
  -6.794  0.1165E+02  0.8813E+02
  -6.784  0.1019E+02  0.8823E+02
  -6.774  0.9036E+01  0.8832E+02
  -6.764  0.8265E+01  0.8841E+02
  -6.754  0.7878E+01  0.8848E+02
  -6.744  0.7821E+01  0.8856E+02
  -6.734  0.8001E+01  0.8864E+02
  -6.724  0.8306E+01  0.8873E+02
  -6.714  0.8629E+01  0.8881E+02
  -6.704  0.8887E+01  0.8890E+02
  -6.694  0.9033E+01  0.8899E+02
  -6.684  0.9061E+01  0.8908E+02
  -6.674  0.8998E+01  0.8917E+02
  -6.664  0.8894E+01  0.8926E+02
  -6.654  0.8810E+01  0.8935E+02
  -6.644  0.8803E+01  0.8944E+02
  -6.634  0.8924E+01  0.8953E+02
  -6.624  0.9213E+01  0.8962E+02
  -6.614  0.9692E+01  0.8971E+02
  -6.604  0.1037E+02  0.8982E+02
  -6.594  0.1122E+02  0.8993E+02
  -6.584  0.1220E+02  0.9005E+02
  -6.574  0.1324E+02  0.9019E+02
  -6.564  0.1424E+02  0.9033E+02
  -6.554  0.1506E+02  0.9048E+02
  -6.544  0.1560E+02  0.9063E+02
  -6.534  0.1572E+02  0.9079E+02
  -6.524  0.1538E+02  0.9095E+02
  -6.514  0.1454E+02  0.9109E+02
  -6.504  0.1327E+02  0.9122E+02
  -6.494  0.1167E+02  0.9134E+02
  -6.484  0.9892E+01  0.9144E+02
  -6.474  0.8126E+01  0.9152E+02
  -6.464  0.6545E+01  0.9159E+02
  -6.454  0.5298E+01  0.9164E+02
  -6.444  0.4486E+01  0.9168E+02
  -6.434  0.4160E+01  0.9173E+02
  -6.424  0.4315E+01  0.9177E+02
  -6.414  0.4911E+01  0.9182E+02
  -6.404  0.5882E+01  0.9188E+02
  -6.394  0.7152E+01  0.9195E+02
  -6.384  0.8650E+01  0.9203E+02
  -6.374  0.1031E+02  0.9214E+02
  -6.364  0.1208E+02  0.9226E+02
  -6.354  0.1389E+02  0.9240E+02
  -6.344  0.1568E+02  0.9255E+02
  -6.334  0.1737E+02  0.9273E+02
  -6.324  0.1888E+02  0.9292E+02
  -6.314  0.2011E+02  0.9312E+02
  -6.304  0.2098E+02  0.9333E+02
  -6.294  0.2144E+02  0.9354E+02
  -6.284  0.2146E+02  0.9376E+02
  -6.274  0.2107E+02  0.9397E+02
  -6.264  0.2033E+02  0.9417E+02
  -6.254  0.1935E+02  0.9436E+02
  -6.244  0.1827E+02  0.9455E+02
  -6.234  0.1721E+02  0.9472E+02
  -6.224  0.1631E+02  0.9488E+02
  -6.214  0.1567E+02  0.9504E+02
  -6.204  0.1535E+02  0.9519E+02
  -6.194  0.1536E+02  0.9535E+02
  -6.184  0.1566E+02  0.9550E+02
  -6.174  0.1617E+02  0.9566E+02
  -6.164  0.1679E+02  0.9583E+02
  -6.154  0.1741E+02  0.9601E+02
  -6.144  0.1795E+02  0.9619E+02
  -6.134  0.1831E+02  0.9637E+02
  -6.124  0.1848E+02  0.9655E+02
  -6.114  0.1843E+02  0.9674E+02
  -6.104  0.1820E+02  0.9692E+02
  -6.094  0.1783E+02  0.9710E+02
  -6.084  0.1737E+02  0.9727E+02
  -6.074  0.1690E+02  0.9744E+02
  -6.064  0.1646E+02  0.9760E+02
  -6.054  0.1613E+02  0.9777E+02
  -6.044  0.1594E+02  0.9793E+02
  -6.034  0.1594E+02  0.9809E+02
  -6.024  0.1615E+02  0.9825E+02
  -6.014  0.1658E+02  0.9841E+02
  -6.004  0.1720E+02  0.9858E+02
  -5.994  0.1798E+02  0.9876E+02
  -5.984  0.1888E+02  0.9895E+02
  -5.974  0.1985E+02  0.9915E+02
  -5.964  0.2083E+02  0.9936E+02
  -5.954  0.2179E+02  0.9958E+02
  -5.944  0.2269E+02  0.9980E+02
  -5.934  0.2352E+02  0.1000E+03
  -5.924  0.2425E+02  0.1003E+03
  -5.914  0.2484E+02  0.1005E+03
  -5.904  0.2525E+02  0.1008E+03
  -5.894  0.2540E+02  0.1010E+03
  -5.884  0.2523E+02  0.1013E+03
  -5.874  0.2468E+02  0.1015E+03
  -5.864  0.2373E+02  0.1018E+03
  -5.854  0.2237E+02  0.1020E+03
  -5.844  0.2071E+02  0.1022E+03
  -5.834  0.1887E+02  0.1024E+03
  -5.824  0.1707E+02  0.1026E+03
  -5.814  0.1552E+02  0.1027E+03
  -5.804  0.1445E+02  0.1029E+03
  -5.794  0.1402E+02  0.1030E+03
  -5.784  0.1432E+02  0.1031E+03
  -5.774  0.1531E+02  0.1033E+03
  -5.764  0.1686E+02  0.1035E+03
  -5.754  0.1873E+02  0.1037E+03
  -5.744  0.2060E+02  0.1039E+03
  -5.734  0.2217E+02  0.1041E+03
  -5.724  0.2315E+02  0.1043E+03
  -5.714  0.2334E+02  0.1045E+03
  -5.704  0.2268E+02  0.1048E+03
  -5.694  0.2120E+02  0.1050E+03
  -5.684  0.1906E+02  0.1052E+03
  -5.674  0.1650E+02  0.1053E+03
  -5.664  0.1381E+02  0.1055E+03
  -5.654  0.1124E+02  0.1056E+03
  -5.644  0.9038E+01  0.1057E+03
  -5.634  0.7337E+01  0.1058E+03
  -5.624  0.6195E+01  0.1058E+03
  -5.614  0.5572E+01  0.1059E+03
  -5.604  0.5358E+01  0.1059E+03
  -5.594  0.5390E+01  0.1060E+03
  -5.584  0.5492E+01  0.1060E+03
  -5.574  0.5506E+01  0.1061E+03
  -5.564  0.5317E+01  0.1061E+03
  -5.554  0.4876E+01  0.1062E+03
  -5.544  0.4202E+01  0.1062E+03
  -5.534  0.3383E+01  0.1063E+03
  -5.524  0.2557E+01  0.1063E+03
  -5.514  0.1895E+01  0.1063E+03
  -5.504  0.1573E+01  0.1063E+03
  -5.494  0.1744E+01  0.1063E+03
  -5.484  0.2515E+01  0.1064E+03
  -5.474  0.3921E+01  0.1064E+03
  -5.464  0.5915E+01  0.1065E+03
  -5.454  0.8361E+01  0.1066E+03
  -5.444  0.1104E+02  0.1067E+03
  -5.434  0.1368E+02  0.1068E+03
  -5.424  0.1599E+02  0.1070E+03
  -5.414  0.1769E+02  0.1071E+03
  -5.404  0.1858E+02  0.1073E+03
  -5.394  0.1856E+02  0.1075E+03
  -5.384  0.1767E+02  0.1077E+03
  -5.374  0.1607E+02  0.1078E+03
  -5.364  0.1404E+02  0.1080E+03
  -5.354  0.1191E+02  0.1081E+03
  -5.344  0.1006E+02  0.1082E+03
  -5.334  0.8820E+01  0.1083E+03
  -5.324  0.8434E+01  0.1084E+03
  -5.314  0.9038E+01  0.1085E+03
  -5.304  0.1064E+02  0.1086E+03
  -5.294  0.1313E+02  0.1087E+03
  -5.284  0.1630E+02  0.1089E+03
  -5.274  0.1990E+02  0.1091E+03
  -5.264  0.2366E+02  0.1093E+03
  -5.254  0.2734E+02  0.1096E+03
  -5.244  0.3074E+02  0.1099E+03
  -5.234  0.3372E+02  0.1102E+03
  -5.224  0.3618E+02  0.1106E+03
  -5.214  0.3807E+02  0.1110E+03
  -5.204  0.3935E+02  0.1114E+03
  -5.194  0.3998E+02  0.1118E+03
  -5.184  0.3996E+02  0.1122E+03
  -5.174  0.3925E+02  0.1126E+03
  -5.164  0.3788E+02  0.1129E+03
  -5.154  0.3592E+02  0.1133E+03
  -5.144  0.3346E+02  0.1136E+03
  -5.134  0.3066E+02  0.1139E+03
  -5.124  0.2769E+02  0.1142E+03
  -5.114  0.2472E+02  0.1145E+03
  -5.104  0.2189E+02  0.1147E+03
  -5.094  0.1933E+02  0.1149E+03
  -5.084  0.1709E+02  0.1150E+03
  -5.074  0.1522E+02  0.1152E+03
  -5.064  0.1375E+02  0.1153E+03
  -5.054  0.1271E+02  0.1155E+03
  -5.044  0.1216E+02  0.1156E+03
  -5.034  0.1216E+02  0.1157E+03
  -5.024  0.1281E+02  0.1158E+03
  -5.014  0.1417E+02  0.1160E+03
  -5.004  0.1629E+02  0.1161E+03
  -4.994  0.1914E+02  0.1163E+03
  -4.984  0.2263E+02  0.1165E+03
  -4.974  0.2658E+02  0.1168E+03
  -4.964  0.3073E+02  0.1171E+03
  -4.954  0.3477E+02  0.1175E+03
  -4.944  0.3838E+02  0.1179E+03
  -4.934  0.4123E+02  0.1183E+03
  -4.924  0.4309E+02  0.1187E+03
  -4.914  0.4379E+02  0.1191E+03
  -4.904  0.4332E+02  0.1196E+03
  -4.894  0.4175E+02  0.1200E+03
  -4.884  0.3930E+02  0.1204E+03
  -4.874  0.3625E+02  0.1207E+03
  -4.864  0.3290E+02  0.1211E+03
  -4.854  0.2959E+02  0.1214E+03
  -4.844  0.2656E+02  0.1216E+03
  -4.834  0.2399E+02  0.1219E+03
  -4.824  0.2199E+02  0.1221E+03
  -4.814  0.2054E+02  0.1223E+03
  -4.804  0.1960E+02  0.1225E+03
  -4.794  0.1907E+02  0.1227E+03
  -4.784  0.1887E+02  0.1229E+03
  -4.774  0.1893E+02  0.1231E+03
  -4.764  0.1922E+02  0.1233E+03
  -4.754  0.1971E+02  0.1235E+03
  -4.744  0.2041E+02  0.1237E+03
  -4.734  0.2132E+02  0.1239E+03
  -4.724  0.2240E+02  0.1241E+03
  -4.714  0.2364E+02  0.1243E+03
  -4.704  0.2495E+02  0.1246E+03
  -4.694  0.2628E+02  0.1248E+03
  -4.684  0.2757E+02  0.1251E+03
  -4.674  0.2875E+02  0.1254E+03
  -4.664  0.2978E+02  0.1257E+03
  -4.654  0.3063E+02  0.1260E+03
  -4.644  0.3124E+02  0.1263E+03
  -4.634  0.3160E+02  0.1266E+03
  -4.624  0.3167E+02  0.1270E+03
  -4.614  0.3144E+02  0.1273E+03
  -4.604  0.3094E+02  0.1276E+03
  -4.594  0.3024E+02  0.1279E+03
  -4.584  0.2945E+02  0.1282E+03
  -4.574  0.2871E+02  0.1285E+03
  -4.564  0.2815E+02  0.1287E+03
  -4.554  0.2788E+02  0.1290E+03
  -4.544  0.2794E+02  0.1293E+03
  -4.534  0.2831E+02  0.1296E+03
  -4.524  0.2887E+02  0.1299E+03
  -4.514  0.2946E+02  0.1302E+03
  -4.504  0.2989E+02  0.1305E+03
  -4.494  0.2997E+02  0.1308E+03
  -4.484  0.2956E+02  0.1311E+03
  -4.474  0.2859E+02  0.1313E+03
  -4.464  0.2707E+02  0.1316E+03
  -4.454  0.2513E+02  0.1319E+03
  -4.444  0.2295E+02  0.1321E+03
  -4.434  0.2076E+02  0.1323E+03
  -4.424  0.1882E+02  0.1325E+03
  -4.414  0.1736E+02  0.1327E+03
  -4.404  0.1655E+02  0.1328E+03
  -4.394  0.1650E+02  0.1330E+03
  -4.384  0.1721E+02  0.1332E+03
  -4.374  0.1863E+02  0.1334E+03
  -4.364  0.2059E+02  0.1336E+03
  -4.354  0.2290E+02  0.1338E+03
  -4.344  0.2533E+02  0.1340E+03
  -4.334  0.2767E+02  0.1343E+03
  -4.324  0.2974E+02  0.1346E+03
  -4.314  0.3141E+02  0.1349E+03
  -4.304  0.3258E+02  0.1353E+03
  -4.294  0.3324E+02  0.1356E+03
  -4.284  0.3336E+02  0.1359E+03
  -4.274  0.3300E+02  0.1363E+03
  -4.264  0.3218E+02  0.1366E+03
  -4.254  0.3096E+02  0.1369E+03
  -4.244  0.2944E+02  0.1372E+03
  -4.234  0.2770E+02  0.1375E+03
  -4.224  0.2588E+02  0.1377E+03
  -4.214  0.2416E+02  0.1380E+03
  -4.204  0.2271E+02  0.1382E+03
  -4.194  0.2170E+02  0.1384E+03
  -4.184  0.2124E+02  0.1386E+03
  -4.174  0.2136E+02  0.1388E+03
  -4.164  0.2200E+02  0.1390E+03
  -4.154  0.2299E+02  0.1393E+03
  -4.144  0.2409E+02  0.1395E+03
  -4.134  0.2503E+02  0.1398E+03
  -4.124  0.2556E+02  0.1400E+03
  -4.114  0.2550E+02  0.1403E+03
  -4.104  0.2480E+02  0.1405E+03
  -4.094  0.2354E+02  0.1408E+03
  -4.084  0.2193E+02  0.1410E+03
  -4.074  0.2027E+02  0.1412E+03
  -4.064  0.1887E+02  0.1414E+03
  -4.054  0.1802E+02  0.1416E+03
  -4.044  0.1793E+02  0.1417E+03
  -4.034  0.1865E+02  0.1419E+03
  -4.024  0.2011E+02  0.1421E+03
  -4.014  0.2211E+02  0.1423E+03
  -4.004  0.2435E+02  0.1426E+03
  -3.994  0.2652E+02  0.1429E+03
  -3.984  0.2830E+02  0.1431E+03
  -3.974  0.2945E+02  0.1434E+03
  -3.964  0.2983E+02  0.1437E+03
  -3.954  0.2941E+02  0.1440E+03
  -3.944  0.2828E+02  0.1443E+03
  -3.934  0.2660E+02  0.1446E+03
  -3.924  0.2459E+02  0.1448E+03
  -3.914  0.2250E+02  0.1450E+03
  -3.904  0.2058E+02  0.1452E+03
  -3.894  0.1901E+02  0.1454E+03
  -3.884  0.1794E+02  0.1456E+03
  -3.874  0.1744E+02  0.1458E+03
  -3.864  0.1750E+02  0.1460E+03
  -3.854  0.1805E+02  0.1461E+03
  -3.844  0.1897E+02  0.1463E+03
  -3.834  0.2014E+02  0.1465E+03
  -3.824  0.2142E+02  0.1468E+03
  -3.814  0.2267E+02  0.1470E+03
  -3.804  0.2381E+02  0.1472E+03
  -3.794  0.2477E+02  0.1475E+03
  -3.784  0.2551E+02  0.1477E+03
  -3.774  0.2604E+02  0.1480E+03
  -3.764  0.2633E+02  0.1482E+03
  -3.754  0.2642E+02  0.1485E+03
  -3.744  0.2632E+02  0.1488E+03
  -3.734  0.2606E+02  0.1490E+03
  -3.724  0.2566E+02  0.1493E+03
  -3.714  0.2518E+02  0.1495E+03
  -3.704  0.2463E+02  0.1498E+03
  -3.694  0.2404E+02  0.1500E+03
  -3.684  0.2340E+02  0.1503E+03
  -3.674  0.2267E+02  0.1505E+03
  -3.664  0.2182E+02  0.1507E+03
  -3.654  0.2078E+02  0.1509E+03
  -3.644  0.1951E+02  0.1511E+03
  -3.634  0.1802E+02  0.1513E+03
  -3.624  0.1635E+02  0.1515E+03
  -3.614  0.1464E+02  0.1516E+03
  -3.604  0.1306E+02  0.1517E+03
  -3.594  0.1184E+02  0.1518E+03
  -3.584  0.1121E+02  0.1520E+03
  -3.574  0.1136E+02  0.1521E+03
  -3.564  0.1239E+02  0.1522E+03
  -3.554  0.1430E+02  0.1523E+03
  -3.544  0.1693E+02  0.1525E+03
  -3.534  0.2000E+02  0.1527E+03
  -3.524  0.2314E+02  0.1529E+03
  -3.514  0.2594E+02  0.1532E+03
  -3.504  0.2802E+02  0.1535E+03
  -3.494  0.2909E+02  0.1538E+03
  -3.484  0.2903E+02  0.1541E+03
  -3.474  0.2791E+02  0.1543E+03
  -3.464  0.2596E+02  0.1546E+03
  -3.454  0.2357E+02  0.1548E+03
  -3.444  0.2120E+02  0.1550E+03
  -3.434  0.1929E+02  0.1552E+03
  -3.424  0.1816E+02  0.1554E+03
  -3.414  0.1799E+02  0.1556E+03
  -3.404  0.1876E+02  0.1558E+03
  -3.394  0.2027E+02  0.1560E+03
  -3.384  0.2220E+02  0.1562E+03
  -3.374  0.2418E+02  0.1565E+03
  -3.364  0.2587E+02  0.1567E+03
  -3.354  0.2701E+02  0.1570E+03
  -3.344  0.2749E+02  0.1573E+03
  -3.334  0.2732E+02  0.1575E+03
  -3.324  0.2662E+02  0.1578E+03
  -3.314  0.2554E+02  0.1581E+03
  -3.304  0.2427E+02  0.1583E+03
  -3.294  0.2293E+02  0.1585E+03
  -3.284  0.2161E+02  0.1587E+03
  -3.274  0.2034E+02  0.1589E+03
  -3.264  0.1911E+02  0.1591E+03
  -3.254  0.1795E+02  0.1593E+03
  -3.244  0.1688E+02  0.1595E+03
  -3.234  0.1595E+02  0.1596E+03
  -3.224  0.1524E+02  0.1598E+03
  -3.214  0.1483E+02  0.1599E+03
  -3.204  0.1475E+02  0.1601E+03
  -3.194  0.1499E+02  0.1602E+03
  -3.184  0.1546E+02  0.1604E+03
  -3.174  0.1606E+02  0.1606E+03
  -3.164  0.1663E+02  0.1607E+03
  -3.154  0.1705E+02  0.1609E+03
  -3.144  0.1724E+02  0.1611E+03
  -3.134  0.1723E+02  0.1612E+03
  -3.124  0.1707E+02  0.1614E+03
  -3.114  0.1691E+02  0.1616E+03
  -3.104  0.1691E+02  0.1617E+03
  -3.094  0.1721E+02  0.1619E+03
  -3.084  0.1788E+02  0.1621E+03
  -3.074  0.1891E+02  0.1623E+03
  -3.064  0.2019E+02  0.1625E+03
  -3.054  0.2155E+02  0.1627E+03
  -3.044  0.2280E+02  0.1629E+03
  -3.034  0.2376E+02  0.1632E+03
  -3.024  0.2430E+02  0.1634E+03
  -3.014  0.2440E+02  0.1637E+03
  -3.004  0.2410E+02  0.1639E+03
  -2.994  0.2354E+02  0.1641E+03
  -2.984  0.2287E+02  0.1644E+03
  -2.974  0.2225E+02  0.1646E+03
  -2.964  0.2180E+02  0.1648E+03
  -2.954  0.2158E+02  0.1650E+03
  -2.944  0.2157E+02  0.1652E+03
  -2.934  0.2171E+02  0.1655E+03
  -2.924  0.2191E+02  0.1657E+03
  -2.914  0.2208E+02  0.1659E+03
  -2.904  0.2213E+02  0.1661E+03
  -2.894  0.2203E+02  0.1663E+03
  -2.884  0.2180E+02  0.1666E+03
  -2.874  0.2148E+02  0.1668E+03
  -2.864  0.2115E+02  0.1670E+03
  -2.854  0.2088E+02  0.1672E+03
  -2.844  0.2076E+02  0.1674E+03
  -2.834  0.2081E+02  0.1676E+03
  -2.824  0.2105E+02  0.1678E+03
  -2.814  0.2145E+02  0.1680E+03
  -2.804  0.2197E+02  0.1682E+03
  -2.794  0.2256E+02  0.1685E+03
  -2.784  0.2321E+02  0.1687E+03
  -2.774  0.2390E+02  0.1689E+03
  -2.764  0.2470E+02  0.1692E+03
  -2.754  0.2566E+02  0.1694E+03
  -2.744  0.2689E+02  0.1697E+03
  -2.734  0.2846E+02  0.1700E+03
  -2.724  0.3042E+02  0.1703E+03
  -2.714  0.3279E+02  0.1706E+03
  -2.704  0.3548E+02  0.1710E+03
  -2.694  0.3837E+02  0.1714E+03
  -2.684  0.4125E+02  0.1718E+03
  -2.674  0.4387E+02  0.1722E+03
  -2.664  0.4599E+02  0.1727E+03
  -2.654  0.4736E+02  0.1732E+03
  -2.644  0.4781E+02  0.1736E+03
  -2.634  0.4729E+02  0.1741E+03
  -2.624  0.4581E+02  0.1746E+03
  -2.614  0.4354E+02  0.1750E+03
  -2.604  0.4072E+02  0.1754E+03
  -2.594  0.3761E+02  0.1758E+03
  -2.584  0.3450E+02  0.1761E+03
  -2.574  0.3160E+02  0.1764E+03
  -2.564  0.2905E+02  0.1767E+03
  -2.554  0.2688E+02  0.1770E+03
  -2.544  0.2504E+02  0.1773E+03
  -2.534  0.2344E+02  0.1775E+03
  -2.524  0.2197E+02  0.1777E+03
  -2.514  0.2055E+02  0.1779E+03
  -2.504  0.1920E+02  0.1781E+03
  -2.494  0.1797E+02  0.1783E+03
  -2.484  0.1700E+02  0.1785E+03
  -2.474  0.1645E+02  0.1786E+03
  -2.464  0.1645E+02  0.1788E+03
  -2.454  0.1710E+02  0.1790E+03
  -2.444  0.1840E+02  0.1791E+03
  -2.434  0.2026E+02  0.1793E+03
  -2.424  0.2253E+02  0.1796E+03
  -2.414  0.2496E+02  0.1798E+03
  -2.404  0.2730E+02  0.1801E+03
  -2.394  0.2932E+02  0.1804E+03
  -2.384  0.3081E+02  0.1807E+03
  -2.374  0.3166E+02  0.1810E+03
  -2.364  0.3181E+02  0.1813E+03
  -2.354  0.3128E+02  0.1816E+03
  -2.344  0.3017E+02  0.1819E+03
  -2.334  0.2859E+02  0.1822E+03
  -2.324  0.2668E+02  0.1825E+03
  -2.314  0.2457E+02  0.1827E+03
  -2.304  0.2237E+02  0.1830E+03
  -2.294  0.2019E+02  0.1832E+03
  -2.284  0.1814E+02  0.1833E+03
  -2.274  0.1630E+02  0.1835E+03
  -2.264  0.1477E+02  0.1837E+03
  -2.254  0.1368E+02  0.1838E+03
  -2.244  0.1312E+02  0.1839E+03
  -2.234  0.1318E+02  0.1841E+03
  -2.224  0.1390E+02  0.1842E+03
  -2.214  0.1527E+02  0.1843E+03
  -2.204  0.1721E+02  0.1845E+03
  -2.194  0.1954E+02  0.1847E+03
  -2.184  0.2207E+02  0.1849E+03
  -2.174  0.2455E+02  0.1852E+03
  -2.164  0.2676E+02  0.1854E+03
  -2.154  0.2852E+02  0.1857E+03
  -2.144  0.2967E+02  0.1860E+03
  -2.134  0.3017E+02  0.1863E+03
  -2.124  0.3000E+02  0.1866E+03
  -2.114  0.2922E+02  0.1869E+03
  -2.104  0.2791E+02  0.1872E+03
  -2.094  0.2618E+02  0.1875E+03
  -2.084  0.2412E+02  0.1877E+03
  -2.074  0.2182E+02  0.1879E+03
  -2.064  0.1938E+02  0.1881E+03
  -2.054  0.1686E+02  0.1883E+03
  -2.044  0.1431E+02  0.1884E+03
  -2.034  0.1181E+02  0.1885E+03
  -2.024  0.9417E+01  0.1886E+03
  -2.014  0.7192E+01  0.1887E+03
  -2.004  0.5213E+01  0.1888E+03
  -1.994  0.3568E+01  0.1888E+03
  -1.984  0.2356E+01  0.1888E+03
  -1.974  0.1685E+01  0.1888E+03
  -1.964  0.1667E+01  0.1889E+03
  -1.954  0.2407E+01  0.1889E+03
  -1.944  0.3984E+01  0.1889E+03
  -1.934  0.6432E+01  0.1890E+03
  -1.924  0.9713E+01  0.1891E+03
  -1.914  0.1371E+02  0.1892E+03
  -1.904  0.1819E+02  0.1894E+03
  -1.894  0.2285E+02  0.1896E+03
  -1.884  0.2732E+02  0.1899E+03
  -1.874  0.3119E+02  0.1902E+03
  -1.864  0.3408E+02  0.1906E+03
  -1.854  0.3570E+02  0.1909E+03
  -1.844  0.3586E+02  0.1913E+03
  -1.834  0.3456E+02  0.1916E+03
  -1.824  0.3192E+02  0.1919E+03
  -1.814  0.2820E+02  0.1922E+03
  -1.804  0.2378E+02  0.1925E+03
  -1.794  0.1905E+02  0.1927E+03
  -1.784  0.1442E+02  0.1928E+03
  -1.774  0.1022E+02  0.1929E+03
  -1.764  0.6701E+01  0.1930E+03
  -1.754  0.4013E+01  0.1930E+03
  -1.744  0.2213E+01  0.1930E+03
  -1.734  0.1277E+01  0.1930E+03
  -1.724  0.1127E+01  0.1930E+03
  -1.714  0.1650E+01  0.1931E+03
  -1.704  0.2725E+01  0.1931E+03
  -1.694  0.4232E+01  0.1931E+03
  -1.684  0.6066E+01  0.1932E+03
  -1.674  0.8135E+01  0.1933E+03
  -1.664  0.1037E+02  0.1934E+03
  -1.654  0.1270E+02  0.1935E+03
  -1.644  0.1506E+02  0.1937E+03
  -1.634  0.1739E+02  0.1938E+03
  -1.624  0.1961E+02  0.1940E+03
  -1.614  0.2160E+02  0.1942E+03
  -1.604  0.2324E+02  0.1945E+03
  -1.594  0.2440E+02  0.1947E+03
  -1.584  0.2497E+02  0.1950E+03
  -1.574  0.2486E+02  0.1952E+03
  -1.564  0.2406E+02  0.1955E+03
  -1.554  0.2261E+02  0.1957E+03
  -1.544  0.2063E+02  0.1959E+03
  -1.534  0.1831E+02  0.1961E+03
  -1.524  0.1586E+02  0.1962E+03
  -1.514  0.1349E+02  0.1964E+03
  -1.504  0.1137E+02  0.1965E+03
  -1.494  0.9608E+01  0.1966E+03
  -1.484  0.8237E+01  0.1967E+03
  -1.474  0.7228E+01  0.1967E+03
  -1.464  0.6502E+01  0.1968E+03
  -1.454  0.5968E+01  0.1969E+03
  -1.444  0.5543E+01  0.1969E+03
  -1.434  0.5176E+01  0.1970E+03
  -1.424  0.4853E+01  0.1970E+03
  -1.414  0.4599E+01  0.1971E+03
  -1.404  0.4457E+01  0.1971E+03
  -1.394  0.4476E+01  0.1971E+03
  -1.384  0.4689E+01  0.1972E+03
  -1.374  0.5109E+01  0.1972E+03
  -1.364  0.5720E+01  0.1973E+03
  -1.354  0.6481E+01  0.1974E+03
  -1.344  0.7342E+01  0.1974E+03
  -1.334  0.8244E+01  0.1975E+03
  -1.324  0.9134E+01  0.1976E+03
  -1.314  0.9966E+01  0.1977E+03
  -1.304  0.1070E+02  0.1978E+03
  -1.294  0.1128E+02  0.1979E+03
  -1.284  0.1168E+02  0.1981E+03
  -1.274  0.1185E+02  0.1982E+03
  -1.264  0.1174E+02  0.1983E+03
  -1.254  0.1133E+02  0.1984E+03
  -1.244  0.1060E+02  0.1985E+03
  -1.234  0.9593E+01  0.1986E+03
  -1.224  0.8362E+01  0.1987E+03
  -1.214  0.7006E+01  0.1988E+03
  -1.204  0.5641E+01  0.1988E+03
  -1.194  0.4384E+01  0.1989E+03
  -1.184  0.3336E+01  0.1989E+03
  -1.174  0.2566E+01  0.1989E+03
  -1.164  0.2101E+01  0.1989E+03
  -1.154  0.1919E+01  0.1990E+03
  -1.144  0.1964E+01  0.1990E+03
  -1.134  0.2150E+01  0.1990E+03
  -1.124  0.2383E+01  0.1990E+03
  -1.114  0.2575E+01  0.1990E+03
  -1.104  0.2664E+01  0.1991E+03
  -1.094  0.2619E+01  0.1991E+03
  -1.084  0.2450E+01  0.1991E+03
  -1.074  0.2199E+01  0.1991E+03
  -1.064  0.1938E+01  0.1992E+03
  -1.054  0.1747E+01  0.1992E+03
  -1.044  0.1707E+01  0.1992E+03
  -1.034  0.1877E+01  0.1992E+03
  -1.024  0.2283E+01  0.1992E+03
  -1.014  0.2913E+01  0.1993E+03
  -1.004  0.3711E+01  0.1993E+03
  -0.994  0.4588E+01  0.1994E+03
  -0.984  0.5434E+01  0.1994E+03
  -0.974  0.6135E+01  0.1995E+03
  -0.964  0.6591E+01  0.1995E+03
  -0.954  0.6737E+01  0.1996E+03
  -0.944  0.6548E+01  0.1997E+03
  -0.934  0.6044E+01  0.1997E+03
  -0.924  0.5286E+01  0.1998E+03
  -0.914  0.4361E+01  0.1998E+03
  -0.904  0.3368E+01  0.1999E+03
  -0.894  0.2400E+01  0.1999E+03
  -0.884  0.1532E+01  0.1999E+03
  -0.874  0.8145E+00  0.1999E+03
  -0.864  0.2704E+00  0.1999E+03
  -0.854 -0.1013E+00  0.1999E+03
  -0.844 -0.3181E+00  0.1999E+03
  -0.834 -0.4066E+00  0.1999E+03
  -0.824 -0.3959E+00  0.1999E+03
  -0.814 -0.3122E+00  0.1999E+03
  -0.804 -0.1771E+00  0.1999E+03
  -0.794 -0.7502E-02  0.1999E+03
  -0.784  0.1828E+00  0.1999E+03
  -0.774  0.3813E+00  0.1999E+03
  -0.764  0.5755E+00  0.1999E+03
  -0.754  0.7525E+00  0.1999E+03
  -0.744  0.9001E+00  0.1999E+03
  -0.734  0.1009E+01  0.1999E+03
  -0.724  0.1073E+01  0.1999E+03
  -0.714  0.1096E+01  0.2000E+03
  -0.704  0.1085E+01  0.2000E+03
  -0.694  0.1055E+01  0.2000E+03
  -0.684  0.1023E+01  0.2000E+03
  -0.674  0.1007E+01  0.2000E+03
  -0.664  0.1019E+01  0.2000E+03
  -0.654  0.1064E+01  0.2000E+03
  -0.644  0.1140E+01  0.2000E+03
  -0.634  0.1234E+01  0.2000E+03
  -0.624  0.1326E+01  0.2001E+03
  -0.614  0.1394E+01  0.2001E+03
  -0.604  0.1416E+01  0.2001E+03
  -0.594  0.1376E+01  0.2001E+03
  -0.584  0.1266E+01  0.2001E+03
  -0.574  0.1089E+01  0.2001E+03
  -0.564  0.8627E+00  0.2001E+03
  -0.554  0.6133E+00  0.2001E+03
  -0.544  0.3783E+00  0.2001E+03
  -0.534  0.2010E+00  0.2001E+03
  -0.524  0.1267E+00  0.2001E+03
  -0.514  0.1973E+00  0.2001E+03
  -0.504  0.4457E+00  0.2001E+03
  -0.494  0.8903E+00  0.2002E+03
  -0.484  0.1532E+01  0.2002E+03
  -0.474  0.2352E+01  0.2002E+03
  -0.464  0.3313E+01  0.2002E+03
  -0.454  0.4368E+01  0.2003E+03
  -0.444  0.5462E+01  0.2003E+03
  -0.434  0.6547E+01  0.2004E+03
  -0.424  0.7587E+01  0.2005E+03
  -0.414  0.8564E+01  0.2006E+03
  -0.404  0.9479E+01  0.2006E+03
  -0.394  0.1035E+02  0.2008E+03
  -0.384  0.1120E+02  0.2009E+03
  -0.374  0.1207E+02  0.2010E+03
  -0.364  0.1296E+02  0.2011E+03
  -0.354  0.1391E+02  0.2013E+03
  -0.344  0.1490E+02  0.2014E+03
  -0.334  0.1591E+02  0.2016E+03
  -0.324  0.1693E+02  0.2017E+03
  -0.314  0.1790E+02  0.2019E+03
  -0.304  0.1878E+02  0.2021E+03
  -0.294  0.1950E+02  0.2023E+03
  -0.284  0.1999E+02  0.2025E+03
  -0.274  0.2017E+02  0.2027E+03
  -0.264  0.1996E+02  0.2029E+03
  -0.254  0.1930E+02  0.2031E+03
  -0.244  0.1815E+02  0.2033E+03
  -0.234  0.1652E+02  0.2034E+03
  -0.224  0.1447E+02  0.2036E+03
  -0.214  0.1211E+02  0.2037E+03
  -0.204  0.9617E+01  0.2038E+03
  -0.194  0.7210E+01  0.2039E+03
  -0.184  0.5133E+01  0.2039E+03
  -0.174  0.3639E+01  0.2040E+03
  -0.164  0.2961E+01  0.2040E+03
  -0.154  0.3287E+01  0.2040E+03
  -0.144  0.4734E+01  0.2041E+03
  -0.134  0.7323E+01  0.2041E+03
  -0.124  0.1097E+02  0.2042E+03
  -0.114  0.1547E+02  0.2044E+03
  -0.104  0.2053E+02  0.2046E+03
  -0.094  0.2578E+02  0.2049E+03
  -0.084  0.3080E+02  0.2052E+03
  -0.074  0.3520E+02  0.2055E+03
  -0.064  0.3865E+02  0.2059E+03
  -0.054  0.4093E+02  0.2063E+03
  -0.044  0.4195E+02  0.2067E+03
  -0.034  0.4174E+02  0.2072E+03
  -0.024  0.4048E+02  0.2076E+03
  -0.014  0.3838E+02  0.2079E+03
  -0.004  0.3573E+02  0.2083E+03
   0.006  0.3277E+02  0.2086E+03
   0.016  0.2970E+02  0.2089E+03
   0.026  0.2667E+02  0.2092E+03
   0.036  0.2375E+02  0.2094E+03
   0.046  0.2095E+02  0.2096E+03
   0.056  0.1825E+02  0.2098E+03
   0.066  0.1564E+02  0.2100E+03
   0.076  0.1309E+02  0.2101E+03
   0.086  0.1064E+02  0.2102E+03
   0.096  0.8309E+01  0.2103E+03
   0.106  0.6160E+01  0.2104E+03
   0.116  0.4253E+01  0.2104E+03
   0.126  0.2638E+01  0.2104E+03
   0.136  0.1346E+01  0.2104E+03
   0.146  0.3810E+00  0.2104E+03
   0.156 -0.2776E+00  0.2104E+03
   0.166 -0.6723E+00  0.2104E+03
   0.176 -0.8582E+00  0.2104E+03
   0.186 -0.8947E+00  0.2104E+03
   0.196 -0.8378E+00  0.2104E+03
   0.206 -0.7348E+00  0.2104E+03
   0.216 -0.6216E+00  0.2104E+03
   0.226 -0.5216E+00  0.2104E+03
   0.236 -0.4474E+00  0.2104E+03
   0.246 -0.4017E+00  0.2104E+03
   0.256 -0.3795E+00  0.2104E+03
   0.266 -0.3694E+00  0.2104E+03
   0.276 -0.3549E+00  0.2104E+03
   0.286 -0.3160E+00  0.2104E+03
   0.296 -0.2301E+00  0.2104E+03
   0.306 -0.7530E-01  0.2104E+03
   0.316  0.1679E+00  0.2104E+03
   0.326  0.5131E+00  0.2104E+03
   0.336  0.9655E+00  0.2104E+03
   0.346  0.1520E+01  0.2104E+03
   0.356  0.2164E+01  0.2104E+03
   0.366  0.2877E+01  0.2105E+03
   0.376  0.3638E+01  0.2105E+03
   0.386  0.4430E+01  0.2105E+03
   0.396  0.5247E+01  0.2106E+03
   0.406  0.6098E+01  0.2106E+03
   0.416  0.7008E+01  0.2107E+03
   0.426  0.8009E+01  0.2108E+03
   0.436  0.9137E+01  0.2109E+03
   0.446  0.1042E+02  0.2110E+03
   0.456  0.1186E+02  0.2111E+03
   0.466  0.1344E+02  0.2112E+03
   0.476  0.1510E+02  0.2114E+03
   0.486  0.1676E+02  0.2116E+03
   0.496  0.1834E+02  0.2117E+03
   0.506  0.1974E+02  0.2119E+03
   0.516  0.2092E+02  0.2122E+03
   0.526  0.2183E+02  0.2124E+03
   0.536  0.2250E+02  0.2126E+03
   0.546  0.2297E+02  0.2128E+03
   0.556  0.2328E+02  0.2131E+03
   0.566  0.2350E+02  0.2133E+03
   0.576  0.2363E+02  0.2135E+03
   0.586  0.2365E+02  0.2138E+03
   0.596  0.2352E+02  0.2140E+03
   0.606  0.2314E+02  0.2142E+03
   0.616  0.2245E+02  0.2145E+03
   0.626  0.2138E+02  0.2147E+03
   0.636  0.1994E+02  0.2149E+03
   0.646  0.1821E+02  0.2151E+03
   0.656  0.1633E+02  0.2152E+03
   0.666  0.1445E+02  0.2154E+03
   0.676  0.1278E+02  0.2155E+03
   0.686  0.1145E+02  0.2156E+03
   0.696  0.1058E+02  0.2157E+03
   0.706  0.1018E+02  0.2158E+03
   0.716  0.1022E+02  0.2159E+03
   0.726  0.1061E+02  0.2160E+03
   0.736  0.1123E+02  0.2161E+03
   0.746  0.1198E+02  0.2163E+03
   0.756  0.1279E+02  0.2164E+03
   0.766  0.1364E+02  0.2165E+03
   0.776  0.1456E+02  0.2167E+03
   0.786  0.1561E+02  0.2168E+03
   0.796  0.1686E+02  0.2170E+03
   0.806  0.1836E+02  0.2172E+03
   0.816  0.2011E+02  0.2174E+03
   0.826  0.2205E+02  0.2176E+03
   0.836  0.2408E+02  0.2178E+03
   0.846  0.2605E+02  0.2181E+03
   0.856  0.2779E+02  0.2184E+03
   0.866  0.2915E+02  0.2187E+03
   0.876  0.3001E+02  0.2190E+03
   0.886  0.3032E+02  0.2193E+03
   0.896  0.3011E+02  0.2196E+03
   0.906  0.2947E+02  0.2199E+03
   0.916  0.2855E+02  0.2201E+03
   0.926  0.2750E+02  0.2204E+03
   0.936  0.2650E+02  0.2207E+03
   0.946  0.2567E+02  0.2209E+03
   0.956  0.2509E+02  0.2212E+03
   0.966  0.2478E+02  0.2214E+03
   0.976  0.2469E+02  0.2217E+03
   0.986  0.2474E+02  0.2219E+03
   0.996  0.2482E+02  0.2222E+03
   1.006  0.2481E+02  0.2224E+03
   1.016  0.2459E+02  0.2227E+03
   1.026  0.2409E+02  0.2229E+03
   1.036  0.2326E+02  0.2232E+03
   1.046  0.2211E+02  0.2234E+03
   1.056  0.2070E+02  0.2236E+03
   1.066  0.1913E+02  0.2238E+03
   1.076  0.1752E+02  0.2239E+03
   1.086  0.1602E+02  0.2241E+03
   1.096  0.1475E+02  0.2243E+03
   1.106  0.1383E+02  0.2244E+03
   1.116  0.1332E+02  0.2245E+03
   1.126  0.1324E+02  0.2247E+03
   1.136  0.1360E+02  0.2248E+03
   1.146  0.1434E+02  0.2249E+03
   1.156  0.1541E+02  0.2251E+03
   1.166  0.1676E+02  0.2253E+03
   1.176  0.1834E+02  0.2254E+03
   1.186  0.2013E+02  0.2256E+03
   1.196  0.2214E+02  0.2259E+03
   1.206  0.2436E+02  0.2261E+03
   1.216  0.2679E+02  0.2264E+03
   1.226  0.2939E+02  0.2267E+03
   1.236  0.3207E+02  0.2270E+03
   1.246  0.3468E+02  0.2273E+03
   1.256  0.3706E+02  0.2277E+03
   1.266  0.3899E+02  0.2281E+03
   1.276  0.4030E+02  0.2285E+03
   1.286  0.4083E+02  0.2289E+03
   1.296  0.4052E+02  0.2293E+03
   1.306  0.3939E+02  0.2297E+03
   1.316  0.3754E+02  0.2301E+03
   1.326  0.3514E+02  0.2304E+03
   1.336  0.3242E+02  0.2308E+03
   1.346  0.2961E+02  0.2311E+03
   1.356  0.2689E+02  0.2313E+03
   1.366  0.2443E+02  0.2316E+03
   1.376  0.2230E+02  0.2318E+03
   1.386  0.2053E+02  0.2320E+03
   1.396  0.1911E+02  0.2322E+03
   1.406  0.1799E+02  0.2324E+03
   1.416  0.1711E+02  0.2325E+03
   1.426  0.1646E+02  0.2327E+03
   1.436  0.1602E+02  0.2329E+03
   1.446  0.1581E+02  0.2330E+03
   1.456  0.1588E+02  0.2332E+03
   1.466  0.1624E+02  0.2333E+03
   1.476  0.1691E+02  0.2335E+03
   1.486  0.1788E+02  0.2337E+03
   1.496  0.1906E+02  0.2339E+03
   1.506  0.2036E+02  0.2341E+03
   1.516  0.2165E+02  0.2343E+03
   1.526  0.2280E+02  0.2345E+03
   1.536  0.2368E+02  0.2348E+03
   1.546  0.2421E+02  0.2350E+03
   1.556  0.2434E+02  0.2353E+03
   1.566  0.2409E+02  0.2355E+03
   1.576  0.2350E+02  0.2357E+03
   1.586  0.2264E+02  0.2360E+03
   1.596  0.2162E+02  0.2362E+03
   1.606  0.2053E+02  0.2364E+03
   1.616  0.1946E+02  0.2366E+03
   1.626  0.1849E+02  0.2368E+03
   1.636  0.1767E+02  0.2369E+03
   1.646  0.1704E+02  0.2371E+03
   1.656  0.1661E+02  0.2373E+03
   1.666  0.1637E+02  0.2374E+03
   1.676  0.1629E+02  0.2376E+03
   1.686  0.1633E+02  0.2378E+03
   1.696  0.1644E+02  0.2379E+03
   1.706  0.1655E+02  0.2381E+03
   1.716  0.1661E+02  0.2383E+03
   1.726  0.1654E+02  0.2384E+03
   1.736  0.1630E+02  0.2386E+03
   1.746  0.1586E+02  0.2387E+03
   1.756  0.1519E+02  0.2389E+03
   1.766  0.1430E+02  0.2390E+03
   1.776  0.1322E+02  0.2392E+03
   1.786  0.1199E+02  0.2393E+03
   1.796  0.1066E+02  0.2394E+03
   1.806  0.9310E+01  0.2395E+03
   1.816  0.8004E+01  0.2396E+03
   1.826  0.6800E+01  0.2396E+03
   1.836  0.5742E+01  0.2397E+03
   1.846  0.4855E+01  0.2397E+03
   1.856  0.4141E+01  0.2398E+03
   1.866  0.3583E+01  0.2398E+03
   1.876  0.3153E+01  0.2399E+03
   1.886  0.2812E+01  0.2399E+03
   1.896  0.2525E+01  0.2399E+03
   1.906  0.2259E+01  0.2399E+03
   1.916  0.1993E+01  0.2399E+03
   1.926  0.1715E+01  0.2400E+03
   1.936  0.1425E+01  0.2400E+03
   1.946  0.1132E+01  0.2400E+03
   1.956  0.8470E+00  0.2400E+03
   1.966  0.5850E+00  0.2400E+03
   1.976  0.3580E+00  0.2400E+03
   1.986  0.1741E+00  0.2400E+03
   1.996  0.3664E-01  0.2400E+03
   2.006 -0.5628E-01  0.2400E+03
   2.016 -0.1102E+00  0.2400E+03
   2.026 -0.1332E+00  0.2400E+03
   2.036 -0.1341E+00  0.2400E+03
   2.046 -0.1211E+00  0.2400E+03
   2.056 -0.1011E+00  0.2400E+03
   2.066 -0.7937E-01  0.2400E+03
   2.076 -0.5903E-01  0.2400E+03
   2.086 -0.4184E-01  0.2400E+03
   2.096 -0.2837E-01  0.2400E+03
   2.106 -0.1845E-01  0.2400E+03
   2.116 -0.1153E-01  0.2400E+03
   2.126 -0.6934E-02  0.2400E+03
   2.136 -0.4019E-02  0.2400E+03
   2.146 -0.2246E-02  0.2400E+03
   2.156 -0.1211E-02  0.2400E+03
