# E (eV)   ldos(E)   pdos(E)   
 -15.919  0.000E+00  0.000E+00
 -15.909  0.201E-02  0.201E-02
 -15.899  0.393E-02  0.393E-02
 -15.889  0.283E-02  0.283E-02
 -15.879  0.293E-02  0.293E-02
 -15.869  0.303E-02  0.303E-02
 -15.859  0.312E-02  0.312E-02
 -15.849  0.321E-02  0.321E-02
 -15.839  0.329E-02  0.329E-02
 -15.829  0.328E-02  0.328E-02
 -15.819  0.305E-02  0.305E-02
 -15.809  0.282E-02  0.282E-02
 -15.799  0.267E-02  0.267E-02
 -15.789  0.267E-02  0.267E-02
 -15.779  0.266E-02  0.266E-02
 -15.769  0.264E-02  0.264E-02
 -15.759  0.260E-02  0.260E-02
 -15.749  0.255E-02  0.255E-02
 -15.739  0.250E-02  0.250E-02
 -15.729  0.242E-02  0.242E-02
 -15.719  0.234E-02  0.234E-02
 -15.709  0.452E-02  0.452E-02
 -15.699  0.314E-02  0.314E-02
 -15.689  0.204E-02  0.204E-02
 -15.679  0.121E-02  0.121E-02
 -15.669  0.689E-03  0.689E-03
 -15.659  0.516E-03  0.516E-03
 -15.649  0.367E-03  0.367E-03
 -15.639  0.402E-03  0.402E-03
 -15.629  0.665E-03  0.665E-03
 -15.619  0.921E-03  0.921E-03
 -15.609  0.117E-02  0.117E-02
 -15.599  0.141E-02  0.141E-02
 -15.589  0.164E-02  0.164E-02
 -15.579  0.184E-02  0.184E-02
 -15.569  0.201E-02  0.201E-02
 -15.559  0.240E-02  0.240E-02
 -15.549  0.582E-02  0.582E-02
 -15.539  0.197E-02  0.197E-02
 -15.529  0.202E-02  0.202E-02
 -15.519  0.206E-02  0.206E-02
 -15.509  0.210E-02  0.210E-02
 -15.499  0.212E-02  0.212E-02
 -15.489  0.214E-02  0.214E-02
 -15.479  0.214E-02  0.214E-02
 -15.469  0.214E-02  0.214E-02
 -15.459  0.213E-02  0.213E-02
 -15.449  0.211E-02  0.211E-02
 -15.439  0.208E-02  0.208E-02
 -15.429  0.204E-02  0.204E-02
 -15.419  0.199E-02  0.199E-02
 -15.409  0.193E-02  0.193E-02
 -15.399  0.186E-02  0.186E-02
 -15.389  0.178E-02  0.178E-02
 -15.379  0.169E-02  0.169E-02
 -15.369  0.159E-02  0.159E-02
 -15.359  0.232E-02  0.232E-02
 -15.349  0.224E-02  0.224E-02
 -15.339  0.214E-02  0.214E-02
 -15.329  0.202E-02  0.202E-02
 -15.319  0.189E-02  0.189E-02
 -15.309  0.175E-02  0.175E-02
 -15.299  0.158E-02  0.158E-02
 -15.289  0.154E-02  0.154E-02
 -15.279  0.151E-02  0.151E-02
 -15.269  0.148E-02  0.148E-02
 -15.259  0.145E-02  0.145E-02
 -15.249  0.142E-02  0.142E-02
 -15.239  0.138E-02  0.138E-02
 -15.229  0.135E-02  0.135E-02
 -15.219  0.132E-02  0.132E-02
 -15.209  0.129E-02  0.129E-02
 -15.199  0.986E-03  0.986E-03
 -15.189  0.921E-03  0.921E-03
 -15.179  0.854E-03  0.854E-03
 -15.169  0.783E-03  0.783E-03
 -15.159  0.710E-03  0.710E-03
 -15.149  0.635E-03  0.635E-03
 -15.139  0.560E-03  0.560E-03
 -15.129  0.860E-03  0.860E-03
 -15.119  0.116E-02  0.116E-02
 -15.109  0.141E-02  0.141E-02
 -15.099  0.145E-02  0.145E-02
 -15.089  0.150E-02  0.150E-02
 -15.079  0.154E-02  0.154E-02
 -15.069  0.158E-02  0.158E-02
 -15.059  0.161E-02  0.161E-02
 -15.049  0.165E-02  0.165E-02
 -15.039  0.168E-02  0.168E-02
 -15.029  0.171E-02  0.171E-02
 -15.019  0.315E-02  0.315E-02
 -15.009  0.286E-02  0.286E-02
 -14.999  0.258E-02  0.258E-02
 -14.989  0.232E-02  0.232E-02
 -14.979  0.209E-02  0.209E-02
 -14.969  0.187E-02  0.187E-02
 -14.959  0.167E-02  0.167E-02
 -14.949  0.148E-02  0.148E-02
 -14.939  0.132E-02  0.132E-02
 -14.929  0.117E-02  0.117E-02
 -14.919  0.105E-02  0.105E-02
 -14.909  0.941E-03  0.941E-03
 -14.899  0.855E-03  0.855E-03
 -14.889  0.774E-03  0.774E-03
 -14.879  0.698E-03  0.698E-03
 -14.869  0.627E-03  0.627E-03
 -14.859  0.156E-02  0.156E-02
 -14.849  0.119E-02  0.119E-02
 -14.839  0.892E-03  0.892E-03
 -14.829  0.666E-03  0.666E-03
 -14.819  0.513E-03  0.513E-03
 -14.809  0.432E-03  0.432E-03
 -14.799  0.557E-03  0.557E-03
 -14.789  0.709E-03  0.709E-03
 -14.779  0.842E-03  0.842E-03
 -14.769  0.955E-03  0.955E-03
 -14.759  0.105E-02  0.105E-02
 -14.749  0.112E-02  0.112E-02
 -14.739  0.118E-02  0.118E-02
 -14.729  0.122E-02  0.122E-02
 -14.719  0.123E-02  0.123E-02
 -14.709  0.123E-02  0.123E-02
 -14.699  0.122E-02  0.122E-02
 -14.689  0.982E-03  0.982E-03
 -14.679  0.981E-03  0.981E-03
 -14.669  0.979E-03  0.979E-03
 -14.659  0.975E-03  0.975E-03
 -14.649  0.970E-03  0.970E-03
 -14.639  0.963E-03  0.963E-03
 -14.629  0.955E-03  0.955E-03
 -14.619  0.945E-03  0.945E-03
 -14.609  0.933E-03  0.933E-03
 -14.599  0.919E-03  0.919E-03
 -14.589  0.904E-03  0.904E-03
 -14.579  0.888E-03  0.888E-03
 -14.569  0.869E-03  0.869E-03
 -14.559  0.896E-03  0.896E-03
 -14.549  0.158E-02  0.158E-02
 -14.539  0.312E-02  0.312E-02
 -14.529  0.875E-03  0.875E-03
 -14.519  0.873E-03  0.873E-03
 -14.509  0.872E-03  0.872E-03
 -14.499  0.871E-03  0.871E-03
 -14.489  0.871E-03  0.871E-03
 -14.479  0.872E-03  0.872E-03
 -14.469  0.874E-03  0.874E-03
 -14.459  0.876E-03  0.876E-03
 -14.449  0.894E-03  0.894E-03
 -14.439  0.915E-03  0.915E-03
 -14.429  0.932E-03  0.932E-03
 -14.419  0.947E-03  0.947E-03
 -14.409  0.958E-03  0.958E-03
 -14.399  0.965E-03  0.965E-03
 -14.389  0.970E-03  0.970E-03
 -14.379  0.972E-03  0.972E-03
 -14.369  0.970E-03  0.970E-03
 -14.359  0.965E-03  0.965E-03
 -14.349  0.957E-03  0.957E-03
 -14.339  0.946E-03  0.946E-03
 -14.329  0.932E-03  0.932E-03
 -14.319  0.918E-03  0.918E-03
 -14.309  0.912E-03  0.912E-03
 -14.299  0.919E-03  0.919E-03
 -14.289  0.924E-03  0.924E-03
 -14.279  0.929E-03  0.929E-03
 -14.269  0.933E-03  0.933E-03
 -14.259  0.936E-03  0.936E-03
 -14.249  0.938E-03  0.938E-03
 -14.239  0.939E-03  0.939E-03
 -14.229  0.940E-03  0.940E-03
 -14.219  0.110E-02  0.110E-02
 -14.209  0.844E-03  0.844E-03
 -14.199  0.644E-03  0.644E-03
 -14.189  0.503E-03  0.503E-03
 -14.179  0.419E-03  0.419E-03
 -14.169  0.392E-03  0.392E-03
 -14.159  0.516E-03  0.516E-03
 -14.149  0.805E-03  0.805E-03
 -14.139  0.867E-03  0.867E-03
 -14.129  0.833E-03  0.833E-03
 -14.119  0.801E-03  0.801E-03
 -14.109  0.770E-03  0.770E-03
 -14.099  0.740E-03  0.740E-03
 -14.089  0.713E-03  0.713E-03
 -14.079  0.686E-03  0.686E-03
 -14.069  0.451E-03  0.451E-03
 -14.059  0.462E-03  0.462E-03
 -14.049  0.470E-03  0.470E-03
 -14.039  0.475E-03  0.475E-03
 -14.029  0.478E-03  0.478E-03
 -14.019  0.478E-03  0.478E-03
 -14.009  0.475E-03  0.475E-03
 -13.999  0.470E-03  0.470E-03
 -13.989  0.462E-03  0.462E-03
 -13.979  0.452E-03  0.452E-03
 -13.969  0.439E-03  0.439E-03
 -13.959  0.423E-03  0.423E-03
 -13.949  0.405E-03  0.405E-03
 -13.939  0.383E-03  0.383E-03
 -13.929  0.360E-03  0.360E-03
 -13.919  0.960E-03  0.960E-03
 -13.909  0.899E-03  0.899E-03
 -13.899  0.832E-03  0.832E-03
 -13.889  0.757E-03  0.757E-03
 -13.879  0.676E-03  0.676E-03
 -13.869  0.586E-03  0.586E-03
 -13.859  0.372E-03  0.372E-03
 -13.849  0.216E-03  0.216E-03
 -13.839  0.237E-03  0.237E-03
 -13.829  0.401E-03  0.401E-03
 -13.819  0.551E-03  0.551E-03
 -13.809  0.687E-03  0.687E-03
 -13.799  0.810E-03  0.810E-03
 -13.789  0.920E-03  0.920E-03
 -13.779  0.102E-02  0.102E-02
 -13.769  0.235E-02  0.235E-02
 -13.759  0.136E-02  0.136E-02
 -13.749  0.901E-03  0.901E-03
 -13.739  0.893E-03  0.893E-03
 -13.729  0.859E-03  0.859E-03
 -13.719  0.798E-03  0.798E-03
 -13.709  0.712E-03  0.712E-03
 -13.699  0.600E-03  0.600E-03
 -13.689  0.463E-03  0.463E-03
 -13.679  0.300E-03  0.300E-03
 -13.669  0.293E-03  0.293E-03
 -13.659  0.293E-03  0.293E-03
 -13.649  0.294E-03  0.294E-03
 -13.639  0.330E-03  0.330E-03
 -13.629  0.365E-03  0.365E-03
 -13.619  0.397E-03  0.397E-03
 -13.609  0.428E-03  0.428E-03
 -13.599  0.457E-03  0.457E-03
 -13.589  0.484E-03  0.484E-03
 -13.579  0.509E-03  0.509E-03
 -13.569  0.533E-03  0.533E-03
 -13.559  0.555E-03  0.555E-03
 -13.549  0.575E-03  0.575E-03
 -13.539  0.594E-03  0.594E-03
 -13.529  0.611E-03  0.611E-03
 -13.519  0.626E-03  0.626E-03
 -13.509  0.481E-03  0.481E-03
 -13.499  0.454E-03  0.454E-03
 -13.489  0.430E-03  0.430E-03
 -13.479  0.124E-02  0.124E-02
 -13.469  0.364E-03  0.364E-03
 -13.459  0.308E-03  0.308E-03
 -13.449  0.301E-03  0.301E-03
 -13.439  0.297E-03  0.297E-03
 -13.429  0.296E-03  0.296E-03
 -13.419  0.296E-03  0.296E-03
 -13.409  0.295E-03  0.295E-03
 -13.399  0.294E-03  0.294E-03
 -13.389  0.293E-03  0.293E-03
 -13.379  0.293E-03  0.293E-03
 -13.369  0.289E-03  0.289E-03
 -13.359  0.283E-03  0.283E-03
 -13.349  0.277E-03  0.277E-03
 -13.339  0.272E-03  0.272E-03
 -13.329  0.274E-03  0.274E-03
 -13.319  0.276E-03  0.276E-03
 -13.309  0.278E-03  0.278E-03
 -13.299  0.280E-03  0.280E-03
 -13.289  0.282E-03  0.282E-03
 -13.279  0.284E-03  0.284E-03
 -13.269  0.388E-03  0.388E-03
 -13.259  0.389E-03  0.389E-03
 -13.249  0.389E-03  0.389E-03
 -13.239  0.388E-03  0.388E-03
 -13.229  0.385E-03  0.385E-03
 -13.219  0.382E-03  0.382E-03
 -13.209  0.377E-03  0.377E-03
 -13.199  0.370E-03  0.370E-03
 -13.189  0.363E-03  0.363E-03
 -13.179  0.354E-03  0.354E-03
 -13.169  0.344E-03  0.344E-03
 -13.159  0.335E-03  0.335E-03
 -13.149  0.328E-03  0.328E-03
 -13.139  0.409E-03  0.409E-03
 -13.129  0.460E-03  0.460E-03
 -13.119  0.477E-03  0.477E-03
 -13.109  0.414E-03  0.414E-03
 -13.099  0.399E-03  0.399E-03
 -13.089  0.335E-03  0.335E-03
 -13.079  0.227E-03  0.227E-03
 -13.069  0.203E-03  0.203E-03
 -13.059  0.185E-03  0.185E-03
 -13.049  0.175E-03  0.175E-03
 -13.039  0.172E-03  0.172E-03
 -13.029  0.171E-03  0.171E-03
 -13.019  0.463E-14  0.463E-14
 -13.009  0.856E-09  0.856E-09
 -12.999  0.277E-07  0.277E-07
 -12.989  0.182E-04  0.182E-04
 -12.979  0.978E-04  0.978E-04
 -12.969  0.168E-03  0.168E-03
 -12.959  0.228E-03  0.228E-03
 -12.949  0.284E-03  0.284E-03
 -12.939  0.344E-03  0.344E-03
 -12.929  0.399E-03  0.399E-03
 -12.919  0.449E-03  0.449E-03
 -12.909  0.495E-03  0.495E-03
 -12.899  0.785E-03  0.785E-03
 -12.889  0.575E-03  0.575E-03
 -12.879  0.569E-03  0.569E-03
 -12.869  0.559E-03  0.559E-03
 -12.859  0.546E-03  0.546E-03
 -12.849  0.530E-03  0.530E-03
 -12.839  0.512E-03  0.512E-03
 -12.829  0.494E-03  0.494E-03
 -12.819  0.472E-03  0.472E-03
 -12.809  0.447E-03  0.447E-03
 -12.799  0.415E-03  0.415E-03
 -12.789  0.383E-03  0.383E-03
 -12.779  0.532E-03  0.532E-03
 -12.769  0.664E-03  0.664E-03
 -12.759  0.249E-03  0.249E-03
 -12.749  0.232E-03  0.232E-03
 -12.739  0.215E-03  0.215E-03
 -12.729  0.198E-03  0.198E-03
 -12.719  0.181E-03  0.181E-03
 -12.709  0.164E-03  0.164E-03
 -12.699  0.148E-03  0.148E-03
 -12.689  0.131E-03  0.131E-03
 -12.679  0.114E-03  0.114E-03
 -12.669  0.974E-04  0.974E-04
 -12.659  0.806E-04  0.806E-04
 -12.649  0.650E-04  0.650E-04
 -12.639  0.662E-04  0.662E-04
 -12.629  0.691E-04  0.691E-04
 -12.619  0.765E-04  0.765E-04
 -12.609  0.884E-04  0.884E-04
 -12.599  0.105E-03  0.105E-03
 -12.589  0.126E-03  0.126E-03
 -12.579  0.151E-03  0.151E-03
 -12.569  0.814E-04  0.814E-04
 -12.559  0.795E-04  0.795E-04
 -12.549  0.761E-04  0.761E-04
 -12.539  0.711E-04  0.711E-04
 -12.529  0.645E-04  0.645E-04
 -12.519  0.767E-04  0.767E-04
 -12.509  0.792E-04  0.792E-04
 -12.499  0.764E-04  0.764E-04
 -12.489  0.736E-04  0.736E-04
 -12.479  0.708E-04  0.708E-04
 -12.469  0.680E-04  0.680E-04
 -12.459  0.653E-04  0.653E-04
 -12.449  0.625E-04  0.625E-04
 -12.439  0.598E-04  0.598E-04
 -12.429  0.571E-04  0.571E-04
 -12.419  0.516E-04  0.516E-04
 -12.409  0.460E-04  0.460E-04
 -12.399  0.405E-04  0.405E-04
 -12.389  0.351E-04  0.351E-04
 -12.379  0.296E-04  0.296E-04
 -12.369  0.242E-04  0.242E-04
 -12.359  0.189E-04  0.189E-04
 -12.349  0.217E-04  0.217E-04
 -12.339  0.144E-04  0.144E-04
 -12.329  0.859E-05  0.859E-05
 -12.319  0.427E-05  0.427E-05
 -12.309  0.144E-05  0.144E-05
 -12.299  0.112E-06  0.112E-06
 -12.289  0.000E+00  0.000E+00
 -12.279  0.000E+00  0.000E+00
 -12.269  0.000E+00  0.000E+00
 -12.259  0.000E+00  0.000E+00
 -12.249  0.000E+00  0.000E+00
 -12.239  0.000E+00  0.000E+00
 -12.229  0.000E+00  0.000E+00
 -12.219  0.000E+00  0.000E+00
 -12.209  0.000E+00  0.000E+00
 -12.199  0.000E+00  0.000E+00
 -12.189  0.000E+00  0.000E+00
 -12.179  0.000E+00  0.000E+00
 -12.169  0.000E+00  0.000E+00
 -12.159  0.000E+00  0.000E+00
 -12.149  0.000E+00  0.000E+00
 -12.139  0.000E+00  0.000E+00
 -12.129  0.000E+00  0.000E+00
 -12.119  0.000E+00  0.000E+00
 -12.109  0.000E+00  0.000E+00
 -12.099  0.000E+00  0.000E+00
 -12.089  0.000E+00  0.000E+00
 -12.079  0.000E+00  0.000E+00
 -12.069  0.000E+00  0.000E+00
 -12.059  0.000E+00  0.000E+00
 -12.049  0.000E+00  0.000E+00
 -12.039  0.000E+00  0.000E+00
 -12.029  0.000E+00  0.000E+00
 -12.019  0.000E+00  0.000E+00
 -12.009  0.000E+00  0.000E+00
 -11.999  0.714E-01  0.714E-01
 -11.989  0.215E+00  0.215E+00
 -11.979  0.357E+00  0.357E+00
 -11.969  0.231E+00  0.231E+00
 -11.959  0.241E+00  0.241E+00
 -11.949  0.251E+00  0.251E+00
 -11.939  0.261E+00  0.261E+00
 -11.929  0.271E+00  0.271E+00
 -11.919  0.280E+00  0.280E+00
 -11.909  0.290E+00  0.290E+00
 -11.899  0.282E+00  0.282E+00
 -11.889  0.267E+00  0.267E+00
 -11.879  0.251E+00  0.251E+00
 -11.869  0.243E+00  0.243E+00
 -11.859  0.245E+00  0.245E+00
 -11.849  0.246E+00  0.246E+00
 -11.839  0.246E+00  0.246E+00
 -11.829  0.245E+00  0.245E+00
 -11.819  0.242E+00  0.242E+00
 -11.809  0.239E+00  0.239E+00
 -11.799  0.235E+00  0.235E+00
 -11.789  0.230E+00  0.230E+00
 -11.779  0.223E+00  0.223E+00
 -11.769  0.438E+00  0.438E+00
 -11.759  0.320E+00  0.320E+00
 -11.749  0.223E+00  0.223E+00
 -11.739  0.149E+00  0.149E+00
 -11.729  0.953E-01  0.953E-01
 -11.719  0.650E-01  0.650E-01
 -11.709  0.511E-01  0.511E-01
 -11.699  0.432E-01  0.432E-01
 -11.689  0.697E-01  0.697E-01
 -11.679  0.951E-01  0.951E-01
 -11.669  0.119E+00  0.119E+00
 -11.659  0.143E+00  0.143E+00
 -11.649  0.165E+00  0.165E+00
 -11.639  0.186E+00  0.186E+00
 -11.629  0.207E+00  0.207E+00
 -11.619  0.225E+00  0.225E+00
 -11.609  0.258E+00  0.258E+00
 -11.599  0.427E+00  0.427E+00
 -11.589  0.767E+00  0.767E+00
 -11.579  0.237E+00  0.237E+00
 -11.569  0.243E+00  0.243E+00
 -11.559  0.248E+00  0.248E+00
 -11.549  0.253E+00  0.253E+00
 -11.539  0.256E+00  0.256E+00
 -11.529  0.259E+00  0.259E+00
 -11.519  0.260E+00  0.260E+00
 -11.509  0.261E+00  0.261E+00
 -11.499  0.261E+00  0.261E+00
 -11.489  0.259E+00  0.259E+00
 -11.479  0.258E+00  0.258E+00
 -11.469  0.256E+00  0.256E+00
 -11.459  0.253E+00  0.253E+00
 -11.449  0.249E+00  0.249E+00
 -11.439  0.245E+00  0.245E+00
 -11.429  0.239E+00  0.239E+00
 -11.419  0.233E+00  0.233E+00
 -11.409  0.226E+00  0.226E+00
 -11.399  0.219E+00  0.219E+00
 -11.389  0.211E+00  0.211E+00
 -11.379  0.336E+00  0.336E+00
 -11.369  0.330E+00  0.330E+00
 -11.359  0.320E+00  0.320E+00
 -11.349  0.306E+00  0.306E+00
 -11.339  0.289E+00  0.289E+00
 -11.329  0.267E+00  0.267E+00
 -11.319  0.241E+00  0.241E+00
 -11.309  0.234E+00  0.234E+00
 -11.299  0.231E+00  0.231E+00
 -11.289  0.228E+00  0.228E+00
 -11.279  0.226E+00  0.226E+00
 -11.269  0.224E+00  0.224E+00
 -11.259  0.221E+00  0.221E+00
 -11.249  0.219E+00  0.219E+00
 -11.239  0.217E+00  0.217E+00
 -11.229  0.215E+00  0.215E+00
 -11.219  0.213E+00  0.213E+00
 -11.209  0.211E+00  0.211E+00
 -11.199  0.156E+00  0.156E+00
 -11.189  0.147E+00  0.147E+00
 -11.179  0.137E+00  0.137E+00
 -11.169  0.126E+00  0.126E+00
 -11.159  0.116E+00  0.116E+00
 -11.149  0.105E+00  0.105E+00
 -11.139  0.933E-01  0.933E-01
 -11.129  0.133E+00  0.133E+00
 -11.119  0.186E+00  0.186E+00
 -11.109  0.238E+00  0.238E+00
 -11.099  0.256E+00  0.256E+00
 -11.089  0.265E+00  0.265E+00
 -11.079  0.275E+00  0.275E+00
 -11.069  0.284E+00  0.284E+00
 -11.059  0.292E+00  0.292E+00
 -11.049  0.301E+00  0.301E+00
 -11.039  0.309E+00  0.309E+00
 -11.029  0.317E+00  0.317E+00
 -11.019  0.325E+00  0.325E+00
 -11.009  0.600E+00  0.600E+00
 -10.999  0.548E+00  0.548E+00
 -10.989  0.499E+00  0.499E+00
 -10.979  0.454E+00  0.454E+00
 -10.969  0.411E+00  0.411E+00
 -10.959  0.371E+00  0.371E+00
 -10.949  0.335E+00  0.335E+00
 -10.939  0.301E+00  0.301E+00
 -10.929  0.271E+00  0.271E+00
 -10.919  0.243E+00  0.243E+00
 -10.909  0.219E+00  0.219E+00
 -10.899  0.198E+00  0.198E+00
 -10.889  0.180E+00  0.180E+00
 -10.879  0.165E+00  0.165E+00
 -10.869  0.151E+00  0.151E+00
 -10.859  0.139E+00  0.139E+00
 -10.849  0.128E+00  0.128E+00
 -10.839  0.124E+00  0.124E+00
 -10.829  0.361E+00  0.361E+00
 -10.819  0.265E+00  0.265E+00
 -10.809  0.194E+00  0.194E+00
 -10.799  0.146E+00  0.146E+00
 -10.789  0.121E+00  0.121E+00
 -10.779  0.120E+00  0.120E+00
 -10.769  0.161E+00  0.161E+00
 -10.759  0.206E+00  0.206E+00
 -10.749  0.245E+00  0.245E+00
 -10.739  0.278E+00  0.278E+00
 -10.729  0.304E+00  0.304E+00
 -10.719  0.324E+00  0.324E+00
 -10.709  0.338E+00  0.338E+00
 -10.699  0.345E+00  0.345E+00
 -10.689  0.346E+00  0.346E+00
 -10.679  0.341E+00  0.341E+00
 -10.669  0.281E+00  0.281E+00
 -10.659  0.282E+00  0.282E+00
 -10.649  0.282E+00  0.282E+00
 -10.639  0.282E+00  0.282E+00
 -10.629  0.281E+00  0.281E+00
 -10.619  0.280E+00  0.280E+00
 -10.609  0.279E+00  0.279E+00
 -10.599  0.278E+00  0.278E+00
 -10.589  0.276E+00  0.276E+00
 -10.579  0.273E+00  0.273E+00
 -10.569  0.270E+00  0.270E+00
 -10.559  0.267E+00  0.267E+00
 -10.549  0.264E+00  0.264E+00
 -10.539  0.260E+00  0.260E+00
 -10.529  0.256E+00  0.256E+00
 -10.519  0.251E+00  0.251E+00
 -10.509  0.280E+00  0.280E+00
 -10.499  0.485E+00  0.485E+00
 -10.489  0.107E+01  0.107E+01
 -10.479  0.288E+00  0.288E+00
 -10.469  0.291E+00  0.291E+00
 -10.459  0.294E+00  0.294E+00
 -10.449  0.298E+00  0.298E+00
 -10.439  0.302E+00  0.302E+00
 -10.429  0.307E+00  0.307E+00
 -10.419  0.312E+00  0.312E+00
 -10.409  0.321E+00  0.321E+00
 -10.399  0.329E+00  0.329E+00
 -10.389  0.336E+00  0.336E+00
 -10.379  0.342E+00  0.342E+00
 -10.369  0.347E+00  0.347E+00
 -10.359  0.351E+00  0.351E+00
 -10.349  0.354E+00  0.354E+00
 -10.339  0.356E+00  0.356E+00
 -10.329  0.357E+00  0.357E+00
 -10.319  0.356E+00  0.356E+00
 -10.309  0.355E+00  0.355E+00
 -10.299  0.362E+00  0.362E+00
 -10.289  0.368E+00  0.368E+00
 -10.279  0.374E+00  0.374E+00
 -10.269  0.378E+00  0.378E+00
 -10.259  0.381E+00  0.381E+00
 -10.249  0.383E+00  0.383E+00
 -10.239  0.384E+00  0.384E+00
 -10.229  0.384E+00  0.384E+00
 -10.219  0.383E+00  0.383E+00
 -10.209  0.381E+00  0.381E+00
 -10.199  0.377E+00  0.377E+00
 -10.189  0.373E+00  0.373E+00
 -10.179  0.390E+00  0.390E+00
 -10.169  0.399E+00  0.399E+00
 -10.159  0.402E+00  0.402E+00
 -10.149  0.399E+00  0.399E+00
 -10.139  0.370E+00  0.370E+00
 -10.129  0.234E+00  0.234E+00
 -10.119  0.220E+00  0.220E+00
 -10.109  0.298E+00  0.298E+00
 -10.099  0.485E+00  0.485E+00
 -10.089  0.708E+00  0.708E+00
 -10.079  0.493E+00  0.493E+00
 -10.069  0.524E+00  0.524E+00
 -10.059  0.535E+00  0.535E+00
 -10.049  0.632E+00  0.632E+00
 -10.039  0.605E+00  0.605E+00
 -10.029  0.584E+00  0.584E+00
 -10.019  0.563E+00  0.563E+00
 -10.009  0.539E+00  0.539E+00
  -9.999  0.512E+00  0.512E+00
  -9.989  0.482E+00  0.482E+00
  -9.979  0.449E+00  0.449E+00
  -9.969  0.413E+00  0.413E+00
  -9.959  0.374E+00  0.374E+00
  -9.949  0.332E+00  0.332E+00
  -9.939  0.287E+00  0.287E+00
  -9.929  0.238E+00  0.238E+00
  -9.919  0.223E+00  0.223E+00
  -9.909  0.232E+00  0.232E+00
  -9.899  0.252E+00  0.252E+00
  -9.889  0.283E+00  0.283E+00
  -9.879  0.337E+00  0.337E+00
  -9.869  0.408E+00  0.408E+00
  -9.859  0.496E+00  0.496E+00
  -9.849  0.600E+00  0.600E+00
  -9.839  0.514E+00  0.514E+00
  -9.829  0.588E+00  0.588E+00
  -9.819  0.680E+00  0.680E+00
  -9.809  0.789E+00  0.789E+00
  -9.799  0.916E+00  0.916E+00
  -9.789  0.791E+00  0.791E+00
  -9.779  0.549E-01  0.549E-01
  -9.769  0.636E-02  0.636E-02
  -9.759  0.120E-01  0.120E-01
  -9.749  0.185E-01  0.185E-01
  -9.739  0.360E-01  0.360E-01
  -9.729  0.538E-01  0.538E-01
  -9.719  0.752E-01  0.752E-01
  -9.709  0.997E-01  0.997E-01
  -9.699  0.120E+00  0.120E+00
  -9.689  0.135E+00  0.135E+00
  -9.679  0.143E+00  0.143E+00
  -9.669  0.144E+00  0.144E+00
  -9.659  0.139E+00  0.139E+00
  -9.649  0.128E+00  0.128E+00
  -9.639  0.110E+00  0.110E+00
  -9.629  0.853E-01  0.853E-01
  -9.619  0.542E-01  0.542E-01
  -9.609  0.165E-01  0.165E-01
  -9.599  0.236E-02  0.236E-02
  -9.589  0.225E-02  0.225E-02
  -9.579  0.210E-02  0.210E-02
  -9.569  0.189E-02  0.189E-02
  -9.559  0.377E-02  0.377E-02
  -9.549  0.934E-02  0.934E-02
  -9.539  0.185E-01  0.185E-01
  -9.529  0.314E-01  0.314E-01
  -9.519  0.476E-01  0.476E-01
  -9.509  0.677E-01  0.677E-01
  -9.499  0.913E-01  0.913E-01
  -9.489  0.119E+00  0.119E+00
  -9.479  0.150E+00  0.150E+00
  -9.469  0.185E+00  0.185E+00
  -9.459  0.223E+00  0.223E+00
  -9.449  0.265E+00  0.265E+00
  -9.439  0.311E+00  0.311E+00
  -9.429  0.184E+00  0.184E+00
  -9.419  0.161E+00  0.161E+00
  -9.409  0.141E+00  0.141E+00
  -9.399  0.124E+00  0.124E+00
  -9.389  0.108E+00  0.108E+00
  -9.379  0.959E-01  0.959E-01
  -9.369  0.857E-01  0.857E-01
  -9.359  0.780E-01  0.780E-01
  -9.349  0.729E-01  0.729E-01
  -9.339  0.701E-01  0.701E-01
  -9.329  0.682E-01  0.682E-01
  -9.319  0.661E-01  0.661E-01
  -9.309  0.640E-01  0.640E-01
  -9.299  0.617E-01  0.617E-01
  -9.289  0.632E-01  0.632E-01
  -9.279  0.591E-01  0.591E-01
  -9.269  0.552E-01  0.552E-01
  -9.259  0.517E-01  0.517E-01
  -9.249  0.489E-01  0.489E-01
  -9.239  0.458E-01  0.458E-01
  -9.229  0.425E-01  0.425E-01
  -9.219  0.394E-01  0.394E-01
  -9.209  0.363E-01  0.363E-01
  -9.199  0.330E-01  0.330E-01
  -9.189  0.296E-01  0.296E-01
  -9.179  0.262E-01  0.262E-01
  -9.169  0.227E-01  0.227E-01
  -9.159  0.191E-01  0.191E-01
  -9.149  0.154E-01  0.154E-01
  -9.139  0.115E-01  0.115E-01
  -9.129  0.762E-02  0.762E-02
  -9.119  0.336E-02  0.336E-02
  -9.109  0.264E-02  0.264E-02
  -9.099  0.266E-02  0.266E-02
  -9.089  0.270E-02  0.270E-02
  -9.079  0.277E-02  0.277E-02
  -9.069  0.286E-02  0.286E-02
  -9.059  0.299E-02  0.299E-02
  -9.049  0.314E-02  0.314E-02
  -9.039  0.483E-02  0.483E-02
  -9.029  0.133E-02  0.133E-02
  -9.019  0.159E-02  0.159E-02
  -9.009  0.187E-02  0.187E-02
  -8.999  0.217E-02  0.217E-02
  -8.989  0.249E-02  0.249E-02
  -8.979  0.284E-02  0.284E-02
  -8.969  0.320E-02  0.320E-02
  -8.959  0.359E-02  0.359E-02
  -8.949  0.400E-02  0.400E-02
  -8.939  0.442E-02  0.442E-02
  -8.929  0.564E-02  0.564E-02
  -8.919  0.622E-02  0.622E-02
  -8.909  0.678E-02  0.678E-02
  -8.899  0.732E-02  0.732E-02
  -8.889  0.784E-02  0.784E-02
  -8.879  0.834E-02  0.834E-02
  -8.869  0.881E-02  0.881E-02
  -8.859  0.927E-02  0.927E-02
  -8.849  0.231E-01  0.231E-01
  -8.839  0.219E-01  0.219E-01
  -8.829  0.208E-01  0.208E-01
  -8.819  0.197E-01  0.197E-01
  -8.809  0.186E-01  0.186E-01
  -8.799  0.175E-01  0.175E-01
  -8.789  0.164E-01  0.164E-01
  -8.779  0.153E-01  0.153E-01
  -8.769  0.142E-01  0.142E-01
  -8.759  0.132E-01  0.132E-01
  -8.749  0.122E-01  0.122E-01
  -8.739  0.111E-01  0.111E-01
  -8.729  0.102E-01  0.102E-01
  -8.719  0.922E-02  0.922E-02
  -8.709  0.828E-02  0.828E-02
  -8.699  0.123E-01  0.123E-01
  -8.689  0.350E-01  0.350E-01
  -8.679  0.773E-01  0.773E-01
  -8.669  0.139E+00  0.139E+00
  -8.659  0.221E+00  0.221E+00
  -8.649  0.322E+00  0.322E+00
  -8.639  0.111E+00  0.111E+00
  -8.629  0.107E+00  0.107E+00
  -8.619  0.104E+00  0.104E+00
  -8.609  0.102E+00  0.102E+00
  -8.599  0.994E-01  0.994E-01
  -8.589  0.973E-01  0.973E-01
  -8.579  0.957E-01  0.957E-01
  -8.569  0.944E-01  0.944E-01
  -8.559  0.935E-01  0.935E-01
  -8.549  0.929E-01  0.929E-01
  -8.539  0.927E-01  0.927E-01
  -8.529  0.928E-01  0.928E-01
  -8.519  0.933E-01  0.933E-01
  -8.509  0.941E-01  0.941E-01
  -8.499  0.952E-01  0.952E-01
  -8.489  0.967E-01  0.967E-01
  -8.479  0.103E+00  0.103E+00
  -8.469  0.114E+00  0.114E+00
  -8.459  0.124E+00  0.124E+00
  -8.449  0.134E+00  0.134E+00
  -8.439  0.144E+00  0.144E+00
  -8.429  0.154E+00  0.154E+00
  -8.419  0.163E+00  0.163E+00
  -8.409  0.173E+00  0.173E+00
  -8.399  0.182E+00  0.182E+00
  -8.389  0.191E+00  0.191E+00
  -8.379  0.197E+00  0.197E+00
  -8.369  0.205E+00  0.205E+00
  -8.359  0.219E+00  0.219E+00
  -8.349  0.219E+00  0.219E+00
  -8.339  0.240E+00  0.240E+00
  -8.329  0.258E+00  0.258E+00
  -8.319  0.273E+00  0.273E+00
  -8.309  0.283E+00  0.283E+00
  -8.299  0.272E+00  0.272E+00
  -8.289  0.378E+00  0.378E+00
  -8.279  0.585E+00  0.585E+00
  -8.269  0.228E+00  0.228E+00
  -8.259  0.206E+00  0.206E+00
  -8.249  0.192E+00  0.192E+00
  -8.239  0.183E+00  0.183E+00
  -8.229  0.178E+00  0.178E+00
  -8.219  0.178E+00  0.178E+00
  -8.209  0.201E+00  0.201E+00
  -8.199  0.227E+00  0.227E+00
  -8.189  0.256E+00  0.256E+00
  -8.179  0.288E+00  0.288E+00
  -8.169  0.213E+00  0.213E+00
  -8.159  0.220E+00  0.220E+00
  -8.149  0.226E+00  0.226E+00
  -8.139  0.232E+00  0.232E+00
  -8.129  0.237E+00  0.237E+00
  -8.119  0.242E+00  0.242E+00
  -8.109  0.246E+00  0.246E+00
  -8.099  0.250E+00  0.250E+00
  -8.089  0.254E+00  0.254E+00
  -8.079  0.259E+00  0.259E+00
  -8.069  0.259E+00  0.259E+00
  -8.059  0.255E+00  0.255E+00
  -8.049  0.245E+00  0.245E+00
  -8.039  0.230E+00  0.230E+00
  -8.029  0.210E+00  0.210E+00
  -8.019  0.185E+00  0.185E+00
  -8.009  0.155E+00  0.155E+00
  -7.999  0.124E+00  0.124E+00
  -7.989  0.958E-01  0.958E-01
  -7.979  0.572E+00  0.572E+00
  -7.969  0.733E+00  0.733E+00
  -7.959  0.713E+00  0.713E+00
  -7.949  0.514E+00  0.514E+00
  -7.939  0.134E+00  0.134E+00
  -7.929  0.117E+00  0.117E+00
  -7.919  0.116E+00  0.116E+00
  -7.909  0.115E+00  0.115E+00
  -7.899  0.112E+00  0.112E+00
  -7.889  0.109E+00  0.109E+00
  -7.879  0.104E+00  0.104E+00
  -7.869  0.980E-01  0.980E-01
  -7.859  0.379E+00  0.379E+00
  -7.849  0.338E+00  0.338E+00
  -7.839  0.298E+00  0.298E+00
  -7.829  0.260E+00  0.260E+00
  -7.819  0.222E+00  0.222E+00
  -7.809  0.191E+00  0.191E+00
  -7.799  0.171E+00  0.171E+00
  -7.789  0.154E+00  0.154E+00
  -7.779  0.140E+00  0.140E+00
  -7.769  0.127E+00  0.127E+00
  -7.759  0.118E+00  0.118E+00
  -7.749  0.111E+00  0.111E+00
  -7.739  0.106E+00  0.106E+00
  -7.729  0.102E+00  0.102E+00
  -7.719  0.970E-01  0.970E-01
  -7.709  0.922E-01  0.922E-01
  -7.699  0.872E-01  0.872E-01
  -7.689  0.820E-01  0.820E-01
  -7.679  0.766E-01  0.766E-01
  -7.669  0.710E-01  0.710E-01
  -7.659  0.653E-01  0.653E-01
  -7.649  0.615E-01  0.615E-01
  -7.639  0.773E-01  0.773E-01
  -7.629  0.124E+00  0.124E+00
  -7.619  0.273E+00  0.273E+00
  -7.609  0.532E+00  0.532E+00
  -7.599  0.885E+00  0.885E+00
  -7.589  0.111E+00  0.111E+00
  -7.579  0.113E+00  0.113E+00
  -7.569  0.115E+00  0.115E+00
  -7.559  0.117E+00  0.117E+00
  -7.549  0.120E+00  0.120E+00
  -7.539  0.123E+00  0.123E+00
  -7.529  0.109E+00  0.109E+00
  -7.519  0.112E+00  0.112E+00
  -7.509  0.115E+00  0.115E+00
  -7.499  0.119E+00  0.119E+00
  -7.489  0.122E+00  0.122E+00
  -7.479  0.126E+00  0.126E+00
  -7.469  0.131E+00  0.131E+00
  -7.459  0.135E+00  0.135E+00
  -7.449  0.140E+00  0.140E+00
  -7.439  0.145E+00  0.145E+00
  -7.429  0.151E+00  0.151E+00
  -7.419  0.738E+00  0.738E+00
  -7.409  0.579E+00  0.579E+00
  -7.399  0.488E+00  0.488E+00
  -7.389  0.446E+00  0.446E+00
  -7.379  0.391E+00  0.391E+00
  -7.369  0.319E+00  0.319E+00
  -7.359  0.228E+00  0.228E+00
  -7.349  0.113E+00  0.113E+00
  -7.339  0.958E-01  0.958E-01
  -7.329  0.886E-01  0.886E-01
  -7.319  0.826E-01  0.826E-01
  -7.309  0.778E-01  0.778E-01
  -7.299  0.742E-01  0.742E-01
  -7.289  0.718E-01  0.718E-01
  -7.279  0.709E-01  0.709E-01
  -7.269  0.709E-01  0.709E-01
  -7.259  0.714E-01  0.714E-01
  -7.249  0.720E-01  0.720E-01
  -7.239  0.781E-01  0.781E-01
  -7.229  0.762E-01  0.762E-01
  -7.219  0.746E-01  0.746E-01
  -7.209  0.734E-01  0.734E-01
  -7.199  0.728E-01  0.728E-01
  -7.189  0.727E-01  0.727E-01
  -7.179  0.732E-01  0.732E-01
  -7.169  0.741E-01  0.741E-01
  -7.159  0.756E-01  0.756E-01
  -7.149  0.776E-01  0.776E-01
  -7.139  0.802E-01  0.802E-01
  -7.129  0.832E-01  0.832E-01
  -7.119  0.868E-01  0.868E-01
  -7.109  0.909E-01  0.909E-01
  -7.099  0.955E-01  0.955E-01
  -7.089  0.101E+00  0.101E+00
  -7.079  0.106E+00  0.106E+00
  -7.069  0.113E+00  0.113E+00
  -7.059  0.119E+00  0.119E+00
  -7.049  0.127E+00  0.127E+00
  -7.039  0.134E+00  0.134E+00
  -7.029  0.143E+00  0.143E+00
  -7.019  0.152E+00  0.152E+00
  -7.009  0.240E+00  0.240E+00
  -6.999  0.196E+00  0.196E+00
  -6.989  0.358E+00  0.358E+00
  -6.979  0.237E+00  0.237E+00
  -6.969  0.163E+00  0.163E+00
  -6.959  0.163E+00  0.163E+00
  -6.949  0.157E+00  0.157E+00
  -6.939  0.145E+00  0.145E+00
  -6.929  0.128E+00  0.128E+00
  -6.919  0.105E+00  0.105E+00
  -6.909  0.772E-01  0.772E-01
  -6.899  0.490E-01  0.490E-01
  -6.889  0.419E-01  0.419E-01
  -6.879  0.428E-01  0.428E-01
  -6.869  0.437E-01  0.437E-01
  -6.859  0.446E-01  0.446E-01
  -6.849  0.296E+01  0.296E+01
  -6.839  0.864E-01  0.864E-01
  -6.829  0.727E-01  0.727E-01
  -6.819  0.602E-01  0.602E-01
  -6.809  0.486E-01  0.486E-01
  -6.799  0.385E-01  0.385E-01
  -6.789  0.296E-01  0.296E-01
  -6.779  0.219E-01  0.219E-01
  -6.769  0.154E-01  0.154E-01
  -6.759  0.101E-01  0.101E-01
  -6.749  0.588E-02  0.588E-02
  -6.739  0.290E-02  0.290E-02
  -6.729  0.110E-02  0.110E-02
  -6.719  0.516E-03  0.516E-03
  -6.709  0.470E-03  0.470E-03
  -6.699  0.720E-03  0.720E-03
  -6.689  0.913E-03  0.913E-03
  -6.679  0.105E-02  0.105E-02
  -6.669  0.185E-02  0.185E-02
  -6.659  0.151E-01  0.151E-01
  -6.649  0.457E-01  0.457E-01
  -6.639  0.918E-01  0.918E-01
  -6.629  0.153E+00  0.153E+00
  -6.619  0.230E+00  0.230E+00
  -6.609  0.230E+00  0.230E+00
  -6.599  0.187E+00  0.187E+00
  -6.589  0.152E+00  0.152E+00
  -6.579  0.125E+00  0.125E+00
  -6.569  0.106E+00  0.106E+00
  -6.559  0.949E-01  0.949E-01
  -6.549  0.918E-01  0.918E-01
  -6.539  0.996E-01  0.996E-01
  -6.529  0.144E+00  0.144E+00
  -6.519  0.228E+00  0.228E+00
  -6.509  0.842E-01  0.842E-01
  -6.499  0.848E-01  0.848E-01
  -6.489  0.855E-01  0.855E-01
  -6.479  0.862E-01  0.862E-01
  -6.469  0.870E-01  0.870E-01
  -6.459  0.879E-01  0.879E-01
  -6.449  0.888E-01  0.888E-01
  -6.439  0.898E-01  0.898E-01
  -6.429  0.909E-01  0.909E-01
  -6.419  0.920E-01  0.920E-01
  -6.409  0.931E-01  0.931E-01
  -6.399  0.943E-01  0.943E-01
  -6.389  0.956E-01  0.956E-01
  -6.379  0.114E+00  0.114E+00
  -6.369  0.154E+00  0.154E+00
  -6.359  0.187E+00  0.187E+00
  -6.349  0.214E+00  0.214E+00
  -6.339  0.233E+00  0.233E+00
  -6.329  0.245E+00  0.245E+00
  -6.319  0.302E+00  0.302E+00
  -6.309  0.414E+00  0.414E+00
  -6.299  0.268E-01  0.268E-01
  -6.289  0.268E-01  0.268E-01
  -6.279  0.278E-01  0.278E-01
  -6.269  0.289E-01  0.289E-01
  -6.259  0.303E-01  0.303E-01
  -6.249  0.318E-01  0.318E-01
  -6.239  0.322E-01  0.322E-01
  -6.229  0.352E-01  0.352E-01
  -6.219  0.383E-01  0.383E-01
  -6.209  0.412E-01  0.412E-01
  -6.199  0.441E-01  0.441E-01
  -6.189  0.521E-01  0.521E-01
  -6.179  0.534E-01  0.534E-01
  -6.169  0.545E-01  0.545E-01
  -6.159  0.561E-01  0.561E-01
  -6.149  0.571E-01  0.571E-01
  -6.139  0.580E-01  0.580E-01
  -6.129  0.587E-01  0.587E-01
  -6.119  0.594E-01  0.594E-01
  -6.109  0.601E-01  0.601E-01
  -6.099  0.604E-01  0.604E-01
  -6.089  0.609E-01  0.609E-01
  -6.079  0.613E-01  0.613E-01
  -6.069  0.615E-01  0.615E-01
  -6.059  0.619E-01  0.619E-01
  -6.049  0.650E-01  0.650E-01
  -6.039  0.712E-01  0.712E-01
  -6.029  0.813E-01  0.813E-01
  -6.019  0.930E-01  0.930E-01
  -6.009  0.104E+00  0.104E+00
  -5.999  0.113E+00  0.113E+00
  -5.989  0.121E+00  0.121E+00
  -5.979  0.129E+00  0.129E+00
  -5.969  0.135E+00  0.135E+00
  -5.959  0.139E+00  0.139E+00
  -5.949  0.142E+00  0.142E+00
  -5.939  0.144E+00  0.144E+00
  -5.929  0.143E+00  0.143E+00
  -5.919  0.142E+00  0.142E+00
  -5.909  0.299E+00  0.299E+00
  -5.899  0.111E+00  0.111E+00
  -5.889  0.103E+00  0.103E+00
  -5.879  0.936E-01  0.936E-01
  -5.869  0.835E-01  0.835E-01
  -5.859  0.757E-01  0.757E-01
  -5.849  0.676E-01  0.676E-01
  -5.839  0.598E-01  0.598E-01
  -5.829  0.525E-01  0.525E-01
  -5.819  0.457E-01  0.457E-01
  -5.809  0.397E-01  0.397E-01
  -5.799  0.342E-01  0.342E-01
  -5.789  0.292E-01  0.292E-01
  -5.779  0.248E-01  0.248E-01
  -5.769  0.209E-01  0.209E-01
  -5.759  0.175E-01  0.175E-01
  -5.749  0.147E-01  0.147E-01
  -5.739  0.124E-01  0.124E-01
  -5.729  0.116E-01  0.116E-01
  -5.719  0.104E-01  0.104E-01
  -5.709  0.887E-02  0.887E-02
  -5.699  0.690E-02  0.690E-02
  -5.689  0.660E-02  0.660E-02
  -5.679  0.625E-02  0.625E-02
  -5.669  0.586E-02  0.586E-02
  -5.659  0.544E-02  0.544E-02
  -5.649  0.501E-02  0.501E-02
  -5.639  0.462E-02  0.462E-02
  -5.629  0.425E-02  0.425E-02
  -5.619  0.392E-02  0.392E-02
  -5.609  0.362E-02  0.362E-02
  -5.599  0.334E-02  0.334E-02
  -5.589  0.310E-02  0.310E-02
  -5.579  0.288E-02  0.288E-02
  -5.569  0.261E-02  0.261E-02
  -5.559  0.250E-02  0.250E-02
  -5.549  0.240E-02  0.240E-02
  -5.539  0.230E-02  0.230E-02
  -5.529  0.219E-02  0.219E-02
  -5.519  0.209E-02  0.209E-02
  -5.509  0.199E-02  0.199E-02
  -5.499  0.189E-02  0.189E-02
  -5.489  0.179E-02  0.179E-02
  -5.479  0.169E-02  0.169E-02
  -5.469  0.159E-02  0.159E-02
  -5.459  0.150E-02  0.150E-02
  -5.449  0.140E-02  0.140E-02
  -5.439  0.130E-02  0.130E-02
  -5.429  0.121E-02  0.121E-02
  -5.419  0.111E-02  0.111E-02
  -5.409  0.102E-02  0.102E-02
  -5.399  0.203E-02  0.203E-02
  -5.389  0.116E-02  0.116E-02
  -5.379  0.815E-03  0.815E-03
  -5.369  0.103E-02  0.103E-02
  -5.359  0.187E-02  0.187E-02
  -5.349  0.323E-02  0.323E-02
  -5.339  0.512E-02  0.512E-02
  -5.329  0.753E-02  0.753E-02
  -5.319  0.105E-01  0.105E-01
  -5.309  0.139E-01  0.139E-01
  -5.299  0.179E-01  0.179E-01
  -5.289  0.224E-01  0.224E-01
  -5.279  0.274E-01  0.274E-01
  -5.269  0.373E-01  0.373E-01
  -5.259  0.578E-01  0.578E-01
  -5.249  0.763E-01  0.763E-01
  -5.239  0.108E+00  0.108E+00
  -5.229  0.161E+00  0.161E+00
  -5.219  0.212E+00  0.212E+00
  -5.209  0.140E+00  0.140E+00
  -5.199  0.102E+00  0.102E+00
  -5.189  0.981E-01  0.981E-01
  -5.179  0.108E+00  0.108E+00
  -5.169  0.118E+00  0.118E+00
  -5.159  0.102E+00  0.102E+00
  -5.149  0.952E-01  0.952E-01
  -5.139  0.113E+00  0.113E+00
  -5.129  0.116E+00  0.116E+00
  -5.119  0.117E+00  0.117E+00
  -5.109  0.117E+00  0.117E+00
  -5.099  0.117E+00  0.117E+00
  -5.089  0.116E+00  0.116E+00
  -5.079  0.120E+00  0.120E+00
  -5.069  0.120E+00  0.120E+00
  -5.059  0.119E+00  0.119E+00
  -5.049  0.119E+00  0.119E+00
  -5.039  0.118E+00  0.118E+00
  -5.029  0.117E+00  0.117E+00
  -5.019  0.116E+00  0.116E+00
  -5.009  0.118E+00  0.118E+00
  -4.999  0.132E+00  0.132E+00
  -4.989  0.156E+00  0.156E+00
  -4.979  0.191E+00  0.191E+00
  -4.969  0.238E+00  0.238E+00
  -4.959  0.294E+00  0.294E+00
  -4.949  0.558E-01  0.558E-01
  -4.939  0.582E-01  0.582E-01
  -4.929  0.543E-01  0.543E-01
  -4.919  0.325E-01  0.325E-01
  -4.909  0.167E-01  0.167E-01
  -4.899  0.664E-02  0.664E-02
  -4.889  0.169E-01  0.169E-01
  -4.879  0.767E-02  0.767E-02
  -4.869  0.546E-02  0.546E-02
  -4.859  0.805E-02  0.805E-02
  -4.849  0.101E-01  0.101E-01
  -4.839  0.281E-01  0.281E-01
  -4.829  0.452E-01  0.452E-01
  -4.819  0.593E-01  0.593E-01
  -4.809  0.705E-01  0.705E-01
  -4.799  0.772E-01  0.772E-01
  -4.789  0.846E-01  0.846E-01
  -4.779  0.906E-01  0.906E-01
  -4.769  0.947E-01  0.947E-01
  -4.759  0.844E-01  0.844E-01
  -4.749  0.807E-01  0.807E-01
  -4.739  0.747E-01  0.747E-01
  -4.729  0.666E-01  0.666E-01
  -4.719  0.561E-01  0.561E-01
  -4.709  0.435E-01  0.435E-01
  -4.699  0.287E-01  0.287E-01
  -4.689  0.397E-01  0.397E-01
  -4.679  0.124E+00  0.124E+00
  -4.669  0.194E+00  0.194E+00
  -4.659  0.218E+00  0.218E+00
  -4.649  0.200E+00  0.200E+00
  -4.639  0.138E+00  0.138E+00
  -4.629  0.330E-01  0.330E-01
  -4.619  0.119E-01  0.119E-01
  -4.609  0.314E-01  0.314E-01
  -4.599  0.150E-01  0.150E-01
  -4.589  0.377E-02  0.377E-02
  -4.579  0.395E-02  0.395E-02
  -4.569  0.410E-02  0.410E-02
  -4.559  0.562E-02  0.562E-02
  -4.549  0.911E-02  0.911E-02
  -4.539  0.144E-01  0.144E-01
  -4.529  0.216E-01  0.216E-01
  -4.519  0.306E-01  0.306E-01
  -4.509  0.421E-01  0.421E-01
  -4.499  0.560E-01  0.560E-01
  -4.489  0.719E-01  0.719E-01
  -4.479  0.876E-01  0.876E-01
  -4.469  0.999E-01  0.999E-01
  -4.459  0.118E+00  0.118E+00
  -4.449  0.140E+00  0.140E+00
  -4.439  0.244E+00  0.244E+00
  -4.429  0.188E+00  0.188E+00
  -4.419  0.144E+00  0.144E+00
  -4.409  0.114E+00  0.114E+00
  -4.399  0.961E-01  0.961E-01
  -4.389  0.886E-01  0.886E-01
  -4.379  0.823E-01  0.823E-01
  -4.369  0.760E-01  0.760E-01
  -4.359  0.701E-01  0.701E-01
  -4.349  0.661E-01  0.661E-01
  -4.339  0.642E-01  0.642E-01
  -4.329  0.629E-01  0.629E-01
  -4.319  0.619E-01  0.619E-01
  -4.309  0.621E-01  0.621E-01
  -4.299  0.616E-01  0.616E-01
  -4.289  0.569E-01  0.569E-01
  -4.279  0.503E-01  0.503E-01
  -4.269  0.418E-01  0.418E-01
  -4.259  0.309E-01  0.309E-01
  -4.249  0.247E-01  0.247E-01
  -4.239  0.220E-01  0.220E-01
  -4.229  0.574E-01  0.574E-01
  -4.219  0.501E-01  0.501E-01
  -4.209  0.444E-01  0.444E-01
  -4.199  0.407E-01  0.407E-01
  -4.189  0.412E-01  0.412E-01
  -4.179  0.464E-01  0.464E-01
  -4.169  0.563E-01  0.563E-01
  -4.159  0.708E-01  0.708E-01
  -4.149  0.900E-01  0.900E-01
  -4.139  0.110E+00  0.110E+00
  -4.129  0.133E+00  0.133E+00
  -4.119  0.163E+00  0.163E+00
  -4.109  0.190E+00  0.190E+00
  -4.099  0.895E-01  0.895E-01
  -4.089  0.927E-01  0.927E-01
  -4.079  0.958E-01  0.958E-01
  -4.069  0.981E-01  0.981E-01
  -4.059  0.101E+00  0.101E+00
  -4.049  0.105E+00  0.105E+00
  -4.039  0.108E+00  0.108E+00
  -4.029  0.112E+00  0.112E+00
  -4.019  0.116E+00  0.116E+00
  -4.009  0.119E+00  0.119E+00
  -3.999  0.123E+00  0.123E+00
  -3.989  0.125E+00  0.125E+00
  -3.979  0.993E-01  0.993E-01
  -3.969  0.767E-01  0.767E-01
  -3.959  0.697E-01  0.697E-01
  -3.949  0.963E-01  0.963E-01
  -3.939  0.111E+00  0.111E+00
  -3.929  0.265E-01  0.265E-01
  -3.919  0.190E-01  0.190E-01
  -3.909  0.146E-01  0.146E-01
  -3.899  0.132E-01  0.132E-01
  -3.889  0.131E-01  0.131E-01
  -3.879  0.130E-01  0.130E-01
  -3.869  0.130E-01  0.130E-01
  -3.859  0.132E-01  0.132E-01
  -3.849  0.133E-01  0.133E-01
  -3.839  0.135E-01  0.135E-01
  -3.829  0.139E-01  0.139E-01
  -3.819  0.145E-01  0.145E-01
  -3.809  0.644E-03  0.644E-03
  -3.799  0.671E-03  0.671E-03
  -3.789  0.109E-02  0.109E-02
  -3.779  0.195E-02  0.195E-02
  -3.769  0.316E-02  0.316E-02
  -3.759  0.472E-02  0.472E-02
  -3.749  0.664E-02  0.664E-02
  -3.739  0.236E-01  0.236E-01
  -3.729  0.121E-01  0.121E-01
  -3.719  0.387E-02  0.387E-02
  -3.709  0.394E-02  0.394E-02
  -3.699  0.403E-02  0.403E-02
  -3.689  0.451E-02  0.451E-02
  -3.679  0.550E-02  0.550E-02
  -3.669  0.702E-02  0.702E-02
  -3.659  0.906E-02  0.906E-02
  -3.649  0.117E-01  0.117E-01
  -3.639  0.153E-01  0.153E-01
  -3.629  0.659E-02  0.659E-02
  -3.619  0.809E-02  0.809E-02
  -3.609  0.101E-01  0.101E-01
  -3.599  0.118E-01  0.118E-01
  -3.589  0.133E-01  0.133E-01
  -3.579  0.146E-01  0.146E-01
  -3.569  0.157E-01  0.157E-01
  -3.559  0.166E-01  0.166E-01
  -3.549  0.173E-01  0.173E-01
  -3.539  0.181E-01  0.181E-01
  -3.529  0.195E-01  0.195E-01
  -3.519  0.215E-01  0.215E-01
  -3.509  0.248E-01  0.248E-01
  -3.499  0.299E-01  0.299E-01
  -3.489  0.227E-01  0.227E-01
  -3.479  0.261E-01  0.261E-01
  -3.469  0.138E-01  0.138E-01
  -3.459  0.140E-01  0.140E-01
  -3.449  0.141E-01  0.141E-01
  -3.439  0.142E-01  0.142E-01
  -3.429  0.142E-01  0.142E-01
  -3.419  0.142E-01  0.142E-01
  -3.409  0.142E-01  0.142E-01
  -3.399  0.141E-01  0.141E-01
  -3.389  0.139E-01  0.139E-01
  -3.379  0.137E-01  0.137E-01
  -3.369  0.135E-01  0.135E-01
  -3.359  0.132E-01  0.132E-01
  -3.349  0.142E-01  0.142E-01
  -3.339  0.147E-01  0.147E-01
  -3.329  0.150E-01  0.150E-01
  -3.319  0.152E-01  0.152E-01
  -3.309  0.153E-01  0.153E-01
  -3.299  0.152E-01  0.152E-01
  -3.289  0.150E-01  0.150E-01
  -3.279  0.146E-01  0.146E-01
  -3.269  0.141E-01  0.141E-01
  -3.259  0.135E-01  0.135E-01
  -3.249  0.136E-01  0.136E-01
  -3.239  0.135E-01  0.135E-01
  -3.229  0.134E-01  0.134E-01
  -3.219  0.134E-01  0.134E-01
  -3.209  0.134E-01  0.134E-01
  -3.199  0.134E-01  0.134E-01
  -3.189  0.133E-01  0.133E-01
  -3.179  0.133E-01  0.133E-01
  -3.169  0.133E-01  0.133E-01
  -3.159  0.132E-01  0.132E-01
  -3.149  0.132E-01  0.132E-01
  -3.139  0.132E-01  0.132E-01
  -3.129  0.132E-01  0.132E-01
  -3.119  0.135E-01  0.135E-01
  -3.109  0.140E-01  0.140E-01
  -3.099  0.144E-01  0.144E-01
  -3.089  0.147E-01  0.147E-01
  -3.079  0.151E-01  0.151E-01
  -3.069  0.154E-01  0.154E-01
  -3.059  0.149E-01  0.149E-01
  -3.049  0.141E-01  0.141E-01
  -3.039  0.134E-01  0.134E-01
  -3.029  0.153E-01  0.153E-01
  -3.019  0.155E-01  0.155E-01
  -3.009  0.140E-01  0.140E-01
  -2.999  0.135E-01  0.135E-01
  -2.989  0.131E-01  0.131E-01
  -2.979  0.128E-01  0.128E-01
  -2.969  0.125E-01  0.125E-01
  -2.959  0.123E-01  0.123E-01
  -2.949  0.132E-01  0.132E-01
  -2.939  0.131E-01  0.131E-01
  -2.929  0.130E-01  0.130E-01
  -2.919  0.130E-01  0.130E-01
  -2.909  0.201E-01  0.201E-01
  -2.899  0.171E-01  0.171E-01
  -2.889  0.151E-01  0.151E-01
  -2.879  0.140E-01  0.140E-01
  -2.869  0.112E-01  0.112E-01
  -2.859  0.860E-02  0.860E-02
  -2.849  0.816E-02  0.816E-02
  -2.839  0.766E-02  0.766E-02
  -2.829  0.709E-02  0.709E-02
  -2.819  0.642E-02  0.642E-02
  -2.809  0.566E-02  0.566E-02
  -2.799  0.543E-02  0.543E-02
  -2.789  0.375E-01  0.375E-01
  -2.779  0.218E-02  0.218E-02
  -2.769  0.294E-02  0.294E-02
  -2.759  0.372E-02  0.372E-02
  -2.749  0.452E-02  0.452E-02
  -2.739  0.535E-02  0.535E-02
  -2.729  0.621E-02  0.621E-02
  -2.719  0.709E-02  0.709E-02
  -2.709  0.221E-01  0.221E-01
  -2.699  0.119E-01  0.119E-01
  -2.689  0.154E-01  0.154E-01
  -2.679  0.196E-01  0.196E-01
  -2.669  0.250E-01  0.250E-01
  -2.659  0.372E-01  0.372E-01
  -2.649  0.413E-01  0.413E-01
  -2.639  0.445E-01  0.445E-01
  -2.629  0.424E-01  0.424E-01
  -2.619  0.607E-01  0.607E-01
  -2.609  0.203E-01  0.203E-01
  -2.599  0.190E-01  0.190E-01
  -2.589  0.186E-01  0.186E-01
  -2.579  0.179E-01  0.179E-01
  -2.569  0.172E-01  0.172E-01
  -2.559  0.421E-01  0.421E-01
  -2.549  0.484E-02  0.484E-02
  -2.539  0.887E-02  0.887E-02
  -2.529  0.102E-01  0.102E-01
  -2.519  0.119E-01  0.119E-01
  -2.509  0.193E-01  0.193E-01
  -2.499  0.213E-01  0.213E-01
  -2.489  0.219E-01  0.219E-01
  -2.479  0.211E-01  0.211E-01
  -2.469  0.190E-01  0.190E-01
  -2.459  0.154E-01  0.154E-01
  -2.449  0.103E-01  0.103E-01
  -2.439  0.428E-02  0.428E-02
  -2.429  0.330E-02  0.330E-02
  -2.419  0.628E-02  0.628E-02
  -2.409  0.157E-01  0.157E-01
  -2.399  0.246E-01  0.246E-01
  -2.389  0.480E-01  0.480E-01
  -2.379  0.349E-01  0.349E-01
  -2.369  0.149E-01  0.149E-01
  -2.359  0.844E-02  0.844E-02
  -2.349  0.111E+00  0.111E+00
  -2.339  0.113E+00  0.113E+00
  -2.329  0.858E-01  0.858E-01
  -2.319  0.351E-01  0.351E-01
  -2.309  0.323E-01  0.323E-01
  -2.299  0.233E-01  0.233E-01
  -2.289  0.139E-01  0.139E-01
  -2.279  0.131E-01  0.131E-01
  -2.269  0.131E-01  0.131E-01
  -2.259  0.133E-01  0.133E-01
  -2.249  0.136E-01  0.136E-01
  -2.239  0.141E-01  0.141E-01
  -2.229  0.147E-01  0.147E-01
  -2.219  0.155E-01  0.155E-01
  -2.209  0.164E-01  0.164E-01
  -2.199  0.174E-01  0.174E-01
  -2.189  0.186E-01  0.186E-01
  -2.179  0.552E-01  0.552E-01
  -2.169  0.688E-02  0.688E-02
  -2.159  0.204E-01  0.204E-01
  -2.149  0.477E-01  0.477E-01
  -2.139  0.638E-01  0.638E-01
  -2.129  0.738E-01  0.738E-01
  -2.119  0.584E-01  0.584E-01
  -2.109  0.569E-01  0.569E-01
  -2.099  0.529E-01  0.529E-01
  -2.089  0.969E-02  0.969E-02
  -2.079  0.873E-02  0.873E-02
  -2.069  0.788E-02  0.788E-02
  -2.059  0.716E-02  0.716E-02
  -2.049  0.825E-02  0.825E-02
  -2.039  0.891E-02  0.891E-02
  -2.029  0.965E-02  0.965E-02
  -2.019  0.117E-01  0.117E-01
  -2.009  0.118E-01  0.118E-01
  -1.999  0.120E-01  0.120E-01
  -1.989  0.121E-01  0.121E-01
  -1.979  0.122E-01  0.122E-01
  -1.969  0.124E-01  0.124E-01
  -1.959  0.126E-01  0.126E-01
  -1.949  0.127E-01  0.127E-01
  -1.939  0.129E-01  0.129E-01
  -1.929  0.131E-01  0.131E-01
  -1.919  0.133E-01  0.133E-01
  -1.909  0.304E-01  0.304E-01
  -1.899  0.426E-01  0.426E-01
  -1.889  0.465E-01  0.465E-01
  -1.879  0.422E-01  0.422E-01
  -1.869  0.238E-01  0.238E-01
  -1.859  0.618E-01  0.618E-01
  -1.849  0.848E-01  0.848E-01
  -1.839  0.349E+00  0.349E+00
  -1.829  0.100E+00  0.100E+00
  -1.819  0.881E-01  0.881E-01
  -1.809  0.725E-01  0.725E-01
  -1.799  0.561E-01  0.561E-01
  -1.789  0.552E-01  0.552E-01
  -1.779  0.541E-01  0.541E-01
  -1.769  0.528E-01  0.528E-01
  -1.759  0.512E-01  0.512E-01
  -1.749  0.495E-01  0.495E-01
  -1.739  0.476E-01  0.476E-01
  -1.729  0.454E-01  0.454E-01
  -1.719  0.431E-01  0.431E-01
  -1.709  0.405E-01  0.405E-01
  -1.699  0.412E-01  0.412E-01
  -1.689  0.428E-01  0.428E-01
  -1.679  0.445E-01  0.445E-01
  -1.669  0.463E-01  0.463E-01
  -1.659  0.483E-01  0.483E-01
  -1.649  0.505E-01  0.505E-01
  -1.639  0.449E-01  0.449E-01
  -1.629  0.427E-01  0.427E-01
  -1.619  0.421E-01  0.421E-01
  -1.609  0.444E-01  0.444E-01
  -1.599  0.496E-01  0.496E-01
  -1.589  0.607E-01  0.607E-01
  -1.579  0.135E+00  0.135E+00
  -1.569  0.281E-01  0.281E-01
  -1.559  0.277E-01  0.277E-01
  -1.549  0.573E-01  0.573E-01
  -1.539  0.446E-01  0.446E-01
  -1.529  0.409E-01  0.409E-01
  -1.519  0.370E-01  0.370E-01
  -1.509  0.327E-01  0.327E-01
  -1.499  0.280E-01  0.280E-01
  -1.489  0.231E-01  0.231E-01
  -1.479  0.179E-01  0.179E-01
  -1.469  0.123E-01  0.123E-01
  -1.459  0.905E-02  0.905E-02
  -1.449  0.961E-02  0.961E-02
  -1.439  0.104E-01  0.104E-01
  -1.429  0.113E-01  0.113E-01
  -1.419  0.125E-01  0.125E-01
  -1.409  0.139E-01  0.139E-01
  -1.399  0.154E-01  0.154E-01
  -1.389  0.172E-01  0.172E-01
  -1.379  0.192E-01  0.192E-01
  -1.369  0.214E-01  0.214E-01
  -1.359  0.237E-01  0.237E-01
  -1.349  0.263E-01  0.263E-01
  -1.339  0.291E-01  0.291E-01
  -1.329  0.320E-01  0.320E-01
  -1.319  0.174E-01  0.174E-01
  -1.309  0.174E-01  0.174E-01
  -1.299  0.173E-01  0.173E-01
  -1.289  0.172E-01  0.172E-01
  -1.279  0.170E-01  0.170E-01
  -1.269  0.168E-01  0.168E-01
  -1.259  0.165E-01  0.165E-01
  -1.249  0.165E-01  0.165E-01
  -1.239  0.163E-01  0.163E-01
  -1.229  0.160E-01  0.160E-01
  -1.219  0.156E-01  0.156E-01
  -1.209  0.152E-01  0.152E-01
  -1.199  0.148E-01  0.148E-01
  -1.189  0.144E-01  0.144E-01
  -1.179  0.140E-01  0.140E-01
  -1.169  0.136E-01  0.136E-01
  -1.159  0.132E-01  0.132E-01
  -1.149  0.128E-01  0.128E-01
  -1.139  0.123E-01  0.123E-01
  -1.129  0.119E-01  0.119E-01
  -1.119  0.115E-01  0.115E-01
  -1.109  0.110E-01  0.110E-01
  -1.099  0.108E-01  0.108E-01
  -1.089  0.106E-01  0.106E-01
  -1.079  0.105E-01  0.105E-01
  -1.069  0.103E-01  0.103E-01
  -1.059  0.101E-01  0.101E-01
  -1.049  0.984E-02  0.984E-02
  -1.039  0.958E-02  0.958E-02
  -1.029  0.930E-02  0.930E-02
  -1.019  0.899E-02  0.899E-02
  -1.009  0.866E-02  0.866E-02
  -0.999  0.830E-02  0.830E-02
  -0.989  0.792E-02  0.792E-02
  -0.979  0.752E-02  0.752E-02
  -0.969  0.709E-02  0.709E-02
  -0.959  0.663E-02  0.663E-02
  -0.949  0.679E-02  0.679E-02
  -0.939  0.621E-02  0.621E-02
  -0.929  0.565E-02  0.565E-02
  -0.919  0.512E-02  0.512E-02
  -0.909  0.462E-02  0.462E-02
  -0.899  0.414E-02  0.414E-02
  -0.889  0.369E-02  0.369E-02
  -0.879  0.327E-02  0.327E-02
  -0.869  0.287E-02  0.287E-02
  -0.859  0.250E-02  0.250E-02
  -0.849  0.215E-02  0.215E-02
  -0.839  0.183E-02  0.183E-02
  -0.829  0.153E-02  0.153E-02
  -0.819  0.126E-02  0.126E-02
  -0.809  0.102E-02  0.102E-02
  -0.799  0.804E-03  0.804E-03
  -0.789  0.613E-03  0.613E-03
  -0.779  0.447E-03  0.447E-03
  -0.769  0.308E-03  0.308E-03
  -0.759  0.195E-03  0.195E-03
  -0.749  0.107E-03  0.107E-03
  -0.739  0.455E-04  0.455E-04
  -0.729  0.990E-05  0.990E-05
  -0.719  0.000E+00  0.000E+00
  -0.709  0.000E+00  0.000E+00
  -0.699  0.000E+00  0.000E+00
  -0.689  0.000E+00  0.000E+00
  -0.679  0.000E+00  0.000E+00
  -0.669  0.000E+00  0.000E+00
  -0.659  0.000E+00  0.000E+00
  -0.649  0.000E+00  0.000E+00
  -0.639  0.000E+00  0.000E+00
  -0.629  0.000E+00  0.000E+00
  -0.619  0.208E-03  0.208E-03
  -0.609  0.125E-02  0.125E-02
  -0.599  0.225E-02  0.225E-02
  -0.589  0.322E-02  0.322E-02
  -0.579  0.415E-02  0.415E-02
  -0.569  0.537E-02  0.537E-02
  -0.559  0.662E-02  0.662E-02
  -0.549  0.781E-02  0.781E-02
  -0.539  0.896E-02  0.896E-02
  -0.529  0.101E-01  0.101E-01
  -0.519  0.111E-01  0.111E-01
  -0.509  0.121E-01  0.121E-01
  -0.499  0.130E-01  0.130E-01
  -0.489  0.139E-01  0.139E-01
  -0.479  0.148E-01  0.148E-01
  -0.469  0.156E-01  0.156E-01
  -0.459  0.163E-01  0.163E-01
  -0.449  0.170E-01  0.170E-01
  -0.439  0.176E-01  0.176E-01
  -0.429  0.182E-01  0.182E-01
  -0.419  0.428E-01  0.428E-01
  -0.409  0.406E-01  0.406E-01
  -0.399  0.393E-01  0.393E-01
  -0.389  0.383E-01  0.383E-01
  -0.379  0.376E-01  0.376E-01
  -0.369  0.373E-01  0.373E-01
  -0.359  0.425E-01  0.425E-01
  -0.349  0.865E-01  0.865E-01
  -0.339  0.153E+00  0.153E+00
  -0.329  0.219E+00  0.219E+00
  -0.319  0.119E+00  0.119E+00
  -0.309  0.120E+00  0.120E+00
  -0.299  0.122E+00  0.122E+00
  -0.289  0.697E-01  0.697E-01
  -0.279  0.111E-01  0.111E-01
  -0.269  0.115E-01  0.115E-01
  -0.259  0.302E-01  0.302E-01
  -0.249  0.286E-01  0.286E-01
  -0.239  0.267E-01  0.267E-01
  -0.229  0.465E-01  0.465E-01
  -0.219  0.467E-02  0.467E-02
  -0.209  0.452E-02  0.452E-02
  -0.199  0.435E-02  0.435E-02
  -0.189  0.417E-02  0.417E-02
  -0.179  0.397E-02  0.397E-02
  -0.169  0.376E-02  0.376E-02
  -0.159  0.353E-02  0.353E-02
  -0.149  0.328E-02  0.328E-02
  -0.139  0.302E-02  0.302E-02
  -0.129  0.274E-02  0.274E-02
  -0.119  0.245E-02  0.245E-02
  -0.109  0.359E-02  0.359E-02
  -0.099  0.997E-02  0.997E-02
  -0.089  0.245E-01  0.245E-01
  -0.079  0.524E-01  0.524E-01
  -0.069  0.111E+00  0.111E+00
  -0.059  0.165E+00  0.165E+00
  -0.049  0.133E+00  0.133E+00
  -0.039  0.141E+00  0.141E+00
  -0.029  0.801E-01  0.801E-01
  -0.019  0.788E-01  0.788E-01
  -0.009  0.752E-01  0.752E-01
   0.001  0.689E-01  0.689E-01
   0.011  0.616E-01  0.616E-01
   0.021  0.514E-01  0.514E-01
   0.031  0.336E-01  0.336E-01
   0.041  0.225E-01  0.225E-01
   0.051  0.220E-01  0.220E-01
   0.061  0.258E-01  0.258E-01
   0.071  0.332E-01  0.332E-01
   0.081  0.142E-01  0.142E-01
   0.091  0.109E-01  0.109E-01
   0.101  0.111E-01  0.111E-01
   0.111  0.112E-01  0.112E-01
   0.121  0.114E-01  0.114E-01
   0.131  0.115E-01  0.115E-01
   0.141  0.116E-01  0.116E-01
   0.151  0.118E-01  0.118E-01
   0.161  0.119E-01  0.119E-01
   0.171  0.120E-01  0.120E-01
   0.181  0.121E-01  0.121E-01
   0.191  0.122E-01  0.122E-01
   0.201  0.124E-01  0.124E-01
   0.211  0.125E-01  0.125E-01
   0.221  0.126E-01  0.126E-01
   0.231  0.126E-01  0.126E-01
   0.241  0.127E-01  0.127E-01
   0.251  0.128E-01  0.128E-01
   0.261  0.129E-01  0.129E-01
   0.271  0.130E-01  0.130E-01
   0.281  0.130E-01  0.130E-01
   0.291  0.131E-01  0.131E-01
   0.301  0.132E-01  0.132E-01
   0.311  0.132E-01  0.132E-01
   0.321  0.133E-01  0.133E-01
   0.331  0.133E-01  0.133E-01
   0.341  0.133E-01  0.133E-01
   0.351  0.134E-01  0.134E-01
   0.361  0.134E-01  0.134E-01
   0.371  0.134E-01  0.134E-01
   0.381  0.135E-01  0.135E-01
   0.391  0.155E-01  0.155E-01
   0.401  0.203E-01  0.203E-01
   0.411  0.157E-01  0.157E-01
   0.421  0.160E-01  0.160E-01
   0.431  0.164E-01  0.164E-01
   0.441  0.172E-01  0.172E-01
   0.451  0.183E-01  0.183E-01
   0.461  0.197E-01  0.197E-01
   0.471  0.616E-01  0.616E-01
   0.481  0.933E-01  0.933E-01
   0.491  0.105E+00  0.105E+00
   0.501  0.952E-01  0.952E-01
   0.511  0.653E-01  0.653E-01
   0.521  0.475E-01  0.475E-01
   0.531  0.412E-01  0.412E-01
   0.541  0.420E-01  0.420E-01
   0.551  0.444E-01  0.444E-01
   0.561  0.407E-01  0.407E-01
   0.571  0.362E-01  0.362E-01
   0.581  0.387E-01  0.387E-01
   0.591  0.405E-01  0.405E-01
   0.601  0.488E-01  0.488E-01
   0.611  0.542E-01  0.542E-01
   0.621  0.562E-01  0.562E-01
   0.631  0.532E-01  0.532E-01
   0.641  0.518E-01  0.518E-01
   0.651  0.661E-01  0.661E-01
   0.661  0.780E-01  0.780E-01
   0.671  0.883E-01  0.883E-01
   0.681  0.968E-01  0.968E-01
   0.691  0.104E+00  0.104E+00
   0.701  0.109E+00  0.109E+00
   0.711  0.112E+00  0.112E+00
   0.721  0.115E+00  0.115E+00
   0.731  0.116E+00  0.116E+00
   0.741  0.115E+00  0.115E+00
   0.751  0.115E+00  0.115E+00
   0.761  0.135E+00  0.135E+00
   0.771  0.149E+00  0.149E+00
   0.781  0.158E+00  0.158E+00
   0.791  0.159E+00  0.159E+00
   0.801  0.147E+00  0.147E+00
   0.811  0.136E+00  0.136E+00
   0.821  0.130E+00  0.130E+00
   0.831  0.130E+00  0.130E+00
   0.841  0.125E+00  0.125E+00
   0.851  0.124E+00  0.124E+00
   0.861  0.125E+00  0.125E+00
   0.871  0.274E+00  0.274E+00
   0.881  0.269E+00  0.269E+00
   0.891  0.252E+00  0.252E+00
   0.901  0.252E+00  0.252E+00
   0.911  0.291E+00  0.291E+00
   0.921  0.280E+00  0.280E+00
   0.931  0.253E+00  0.253E+00
   0.941  0.226E+00  0.226E+00
   0.951  0.202E+00  0.202E+00
   0.961  0.181E+00  0.181E+00
   0.971  0.102E+00  0.102E+00
   0.981  0.844E-01  0.844E-01
   0.991  0.927E-01  0.927E-01
   1.001  0.125E+00  0.125E+00
   1.011  0.167E+00  0.167E+00
   1.021  0.218E+00  0.218E+00
   1.031  0.775E+00  0.775E+00
   1.041  0.790E-01  0.790E-01
   1.051  0.134E+00  0.134E+00
   1.061  0.151E+00  0.151E+00
   1.071  0.155E+00  0.155E+00
   1.081  0.145E+00  0.145E+00
   1.091  0.128E+00  0.128E+00
   1.101  0.119E+00  0.119E+00
   1.111  0.111E+00  0.111E+00
   1.121  0.108E+00  0.108E+00
   1.131  0.104E+00  0.104E+00
   1.141  0.102E+00  0.102E+00
   1.151  0.101E+00  0.101E+00
   1.161  0.100E+00  0.100E+00
   1.171  0.106E+00  0.106E+00
   1.181  0.113E+00  0.113E+00
   1.191  0.113E+00  0.113E+00
   1.201  0.116E+00  0.116E+00
   1.211  0.119E+00  0.119E+00
   1.221  0.123E+00  0.123E+00
   1.231  0.127E+00  0.127E+00
   1.241  0.129E+00  0.129E+00
   1.251  0.136E+00  0.136E+00
   1.261  0.163E+00  0.163E+00
   1.271  0.214E+00  0.214E+00
   1.281  0.259E+00  0.259E+00
   1.291  0.152E+00  0.152E+00
   1.301  0.173E+00  0.173E+00
   1.311  0.128E+00  0.128E+00
   1.321  0.975E-01  0.975E-01
   1.331  0.782E-01  0.782E-01
   1.341  0.864E-01  0.864E-01
   1.351  0.103E+00  0.103E+00
   1.361  0.135E+00  0.135E+00
   1.371  0.153E+00  0.153E+00
   1.381  0.161E+00  0.161E+00
   1.391  0.169E+00  0.169E+00
   1.401  0.172E+00  0.172E+00
   1.411  0.171E+00  0.171E+00
   1.421  0.174E+00  0.174E+00
   1.431  0.269E+00  0.269E+00
   1.441  0.193E+00  0.193E+00
   1.451  0.135E+00  0.135E+00
   1.461  0.943E-01  0.943E-01
   1.471  0.739E-01  0.739E-01
   1.481  0.754E-01  0.754E-01
   1.491  0.772E-01  0.772E-01
   1.501  0.787E-01  0.787E-01
   1.511  0.114E+00  0.114E+00
   1.521  0.154E+00  0.154E+00
   1.531  0.195E+00  0.195E+00
   1.541  0.175E+00  0.175E+00
   1.551  0.186E+00  0.186E+00
   1.561  0.282E+00  0.282E+00
   1.571  0.237E+00  0.237E+00
   1.581  0.214E+00  0.214E+00
   1.591  0.203E+00  0.203E+00
   1.601  0.187E+00  0.187E+00
   1.611  0.167E+00  0.167E+00
   1.621  0.985E-01  0.985E-01
   1.631  0.963E-01  0.963E-01
   1.641  0.954E-01  0.954E-01
   1.651  0.959E-01  0.959E-01
   1.661  0.982E-01  0.982E-01
   1.671  0.995E-01  0.995E-01
   1.681  0.101E+00  0.101E+00
   1.691  0.103E+00  0.103E+00
   1.701  0.105E+00  0.105E+00
   1.711  0.108E+00  0.108E+00
   1.721  0.112E+00  0.112E+00
   1.731  0.585E-01  0.585E-01
   1.741  0.498E-01  0.498E-01
   1.751  0.421E-01  0.421E-01
   1.761  0.353E-01  0.353E-01
   1.771  0.294E-01  0.294E-01
   1.781  0.399E-01  0.399E-01
   1.791  0.295E-01  0.295E-01
   1.801  0.209E-01  0.209E-01
   1.811  0.142E-01  0.142E-01
   1.821  0.923E-02  0.923E-02
   1.831  0.614E-02  0.614E-02
   1.841  0.433E-02  0.433E-02
   1.851  0.312E-02  0.312E-02
   1.861  0.248E-02  0.248E-02
   1.871  0.202E-02  0.202E-02
   1.881  0.155E-02  0.155E-02
   1.891  0.107E-02  0.107E-02
   1.901  0.583E-03  0.583E-03
   1.911  0.930E-04  0.930E-04
   1.921  0.000E+00  0.000E+00
