# E (eV)   ldos(E)   pdos(E)    pdos(E)    pdos(E)    pdos(E)    pdos(E)   
 -15.919  0.000E+00  0.000E+00  0.000E+00  0.000E+00  0.000E+00  0.000E+00
 -15.909  0.151E-06  0.407E-08  0.381E-07  0.196E-07  0.463E-07  0.431E-07
 -15.899  0.513E-06  0.633E-08  0.913E-07  0.580E-07  0.185E-06  0.172E-06
 -15.889  0.528E-06  0.339E-08  0.780E-07  0.562E-07  0.202E-06  0.188E-06
 -15.879  0.689E-06  0.316E-08  0.920E-07  0.713E-07  0.271E-06  0.251E-06
 -15.869  0.861E-06  0.292E-08  0.107E-06  0.875E-07  0.346E-06  0.318E-06
 -15.859  0.105E-05  0.269E-08  0.123E-06  0.105E-06  0.425E-06  0.390E-06
 -15.849  0.124E-05  0.246E-08  0.140E-06  0.123E-06  0.510E-06  0.467E-06
 -15.839  0.145E-05  0.223E-08  0.157E-06  0.143E-06  0.601E-06  0.549E-06
 -15.829  0.163E-05  0.199E-08  0.171E-06  0.160E-06  0.678E-06  0.619E-06
 -15.819  0.168E-05  0.189E-08  0.172E-06  0.164E-06  0.703E-06  0.638E-06
 -15.809  0.170E-05  0.208E-08  0.172E-06  0.166E-06  0.715E-06  0.646E-06
 -15.799  0.175E-05  0.261E-08  0.174E-06  0.171E-06  0.739E-06  0.663E-06
 -15.789  0.190E-05  0.336E-08  0.187E-06  0.186E-06  0.806E-06  0.716E-06
 -15.779  0.206E-05  0.420E-08  0.200E-06  0.203E-06  0.880E-06  0.773E-06
 -15.769  0.223E-05  0.510E-08  0.215E-06  0.221E-06  0.960E-06  0.833E-06
 -15.759  0.242E-05  0.608E-08  0.230E-06  0.241E-06  0.105E-05  0.895E-06
 -15.749  0.261E-05  0.714E-08  0.246E-06  0.262E-06  0.114E-05  0.961E-06
 -15.739  0.282E-05  0.827E-08  0.264E-06  0.284E-06  0.124E-05  0.103E-05
 -15.729  0.304E-05  0.948E-08  0.282E-06  0.308E-06  0.134E-05  0.110E-05
 -15.719  0.327E-05  0.108E-07  0.301E-06  0.334E-06  0.145E-05  0.118E-05
 -15.709  0.675E-05  0.230E-07  0.615E-06  0.692E-06  0.301E-05  0.241E-05
 -15.699  0.585E-05  0.208E-07  0.523E-06  0.615E-06  0.267E-05  0.202E-05
 -15.689  0.469E-05  0.171E-07  0.411E-06  0.504E-06  0.218E-05  0.157E-05
 -15.679  0.325E-05  0.119E-07  0.278E-06  0.357E-06  0.155E-05  0.106E-05
 -15.669  0.174E-05  0.596E-08  0.142E-06  0.197E-06  0.855E-06  0.545E-06
 -15.659  0.159E-05  0.548E-08  0.126E-06  0.182E-06  0.793E-06  0.482E-06
 -15.649  0.141E-05  0.490E-08  0.110E-06  0.164E-06  0.714E-06  0.415E-06
 -15.639  0.125E-05  0.477E-08  0.977E-07  0.145E-06  0.630E-06  0.376E-06
 -15.629  0.117E-05  0.550E-08  0.939E-07  0.127E-06  0.558E-06  0.381E-06
 -15.619  0.108E-05  0.638E-08  0.912E-07  0.110E-06  0.485E-06  0.389E-06
 -15.609  0.100E-05  0.740E-08  0.896E-07  0.921E-07  0.411E-06  0.400E-06
 -15.599  0.921E-06  0.856E-08  0.892E-07  0.742E-07  0.335E-06  0.414E-06
 -15.589  0.104E-05  0.106E-07  0.104E-06  0.810E-07  0.366E-06  0.483E-06
 -15.579  0.133E-05  0.133E-07  0.130E-06  0.108E-06  0.482E-06  0.593E-06
 -15.569  0.164E-05  0.163E-07  0.159E-06  0.138E-06  0.614E-06  0.709E-06
 -15.559  0.384E-05  0.416E-07  0.502E-06  0.313E-06  0.123E-05  0.175E-05
 -15.549  0.972E-05  0.997E-07  0.115E-05  0.846E-06  0.345E-05  0.418E-05
 -15.539  0.201E-05  0.203E-07  0.187E-06  0.180E-06  0.797E-06  0.824E-06
 -15.529  0.205E-05  0.212E-07  0.188E-06  0.185E-06  0.822E-06  0.839E-06
 -15.519  0.210E-05  0.221E-07  0.189E-06  0.190E-06  0.846E-06  0.854E-06
 -15.509  0.215E-05  0.229E-07  0.191E-06  0.195E-06  0.870E-06  0.868E-06
 -15.499  0.219E-05  0.238E-07  0.192E-06  0.200E-06  0.894E-06  0.881E-06
 -15.489  0.224E-05  0.246E-07  0.195E-06  0.205E-06  0.918E-06  0.894E-06
 -15.479  0.228E-05  0.254E-07  0.197E-06  0.210E-06  0.941E-06  0.906E-06
 -15.469  0.232E-05  0.262E-07  0.200E-06  0.215E-06  0.964E-06  0.917E-06
 -15.459  0.237E-05  0.270E-07  0.203E-06  0.221E-06  0.986E-06  0.928E-06
 -15.449  0.241E-05  0.278E-07  0.207E-06  0.227E-06  0.101E-05  0.940E-06
 -15.439  0.247E-05  0.287E-07  0.213E-06  0.233E-06  0.104E-05  0.954E-06
 -15.429  0.252E-05  0.297E-07  0.219E-06  0.240E-06  0.106E-05  0.970E-06
 -15.419  0.258E-05  0.307E-07  0.226E-06  0.248E-06  0.109E-05  0.987E-06
 -15.409  0.265E-05  0.317E-07  0.234E-06  0.256E-06  0.112E-05  0.101E-05
 -15.399  0.272E-05  0.328E-07  0.242E-06  0.264E-06  0.115E-05  0.103E-05
 -15.389  0.279E-05  0.339E-07  0.252E-06  0.273E-06  0.118E-05  0.105E-05
 -15.379  0.286E-05  0.350E-07  0.262E-06  0.281E-06  0.121E-05  0.107E-05
 -15.369  0.294E-05  0.362E-07  0.273E-06  0.291E-06  0.124E-05  0.109E-05
 -15.359  0.398E-05  0.509E-07  0.381E-06  0.380E-06  0.163E-05  0.154E-05
 -15.349  0.380E-05  0.504E-07  0.368E-06  0.360E-06  0.154E-05  0.148E-05
 -15.339  0.362E-05  0.497E-07  0.355E-06  0.342E-06  0.145E-05  0.142E-05
 -15.329  0.345E-05  0.488E-07  0.341E-06  0.325E-06  0.138E-05  0.136E-05
 -15.319  0.331E-05  0.479E-07  0.330E-06  0.313E-06  0.132E-05  0.130E-05
 -15.309  0.319E-05  0.471E-07  0.319E-06  0.306E-06  0.128E-05  0.124E-05
 -15.299  0.308E-05  0.462E-07  0.309E-06  0.300E-06  0.125E-05  0.118E-05
 -15.289  0.311E-05  0.476E-07  0.314E-06  0.305E-06  0.126E-05  0.118E-05
 -15.279  0.314E-05  0.492E-07  0.320E-06  0.310E-06  0.128E-05  0.119E-05
 -15.269  0.318E-05  0.508E-07  0.326E-06  0.315E-06  0.129E-05  0.119E-05
 -15.259  0.321E-05  0.524E-07  0.332E-06  0.321E-06  0.131E-05  0.120E-05
 -15.249  0.325E-05  0.541E-07  0.338E-06  0.326E-06  0.132E-05  0.121E-05
 -15.239  0.328E-05  0.558E-07  0.344E-06  0.331E-06  0.134E-05  0.121E-05
 -15.229  0.331E-05  0.575E-07  0.350E-06  0.336E-06  0.135E-05  0.122E-05
 -15.219  0.335E-05  0.593E-07  0.356E-06  0.341E-06  0.136E-05  0.123E-05
 -15.209  0.338E-05  0.611E-07  0.362E-06  0.346E-06  0.138E-05  0.123E-05
 -15.199  0.277E-05  0.523E-07  0.309E-06  0.284E-06  0.111E-05  0.101E-05
 -15.189  0.278E-05  0.534E-07  0.312E-06  0.288E-06  0.112E-05  0.100E-05
 -15.179  0.279E-05  0.544E-07  0.314E-06  0.292E-06  0.113E-05  0.993E-06
 -15.169  0.280E-05  0.555E-07  0.317E-06  0.297E-06  0.114E-05  0.983E-06
 -15.159  0.281E-05  0.566E-07  0.320E-06  0.302E-06  0.116E-05  0.973E-06
 -15.149  0.282E-05  0.577E-07  0.323E-06  0.307E-06  0.117E-05  0.963E-06
 -15.139  0.268E-05  0.555E-07  0.307E-06  0.294E-06  0.112E-05  0.906E-06
 -15.129  0.262E-05  0.487E-07  0.285E-06  0.274E-06  0.108E-05  0.937E-06
 -15.119  0.256E-05  0.420E-07  0.264E-06  0.252E-06  0.103E-05  0.970E-06
 -15.109  0.261E-05  0.386E-07  0.258E-06  0.246E-06  0.104E-05  0.103E-05
 -15.099  0.259E-05  0.371E-07  0.253E-06  0.242E-06  0.103E-05  0.103E-05
 -15.089  0.257E-05  0.357E-07  0.248E-06  0.237E-06  0.102E-05  0.103E-05
 -15.079  0.255E-05  0.344E-07  0.243E-06  0.232E-06  0.100E-05  0.104E-05
 -15.069  0.252E-05  0.332E-07  0.239E-06  0.226E-06  0.986E-06  0.104E-05
 -15.059  0.249E-05  0.322E-07  0.235E-06  0.220E-06  0.968E-06  0.104E-05
 -15.049  0.246E-05  0.312E-07  0.232E-06  0.214E-06  0.947E-06  0.104E-05
 -15.039  0.243E-05  0.304E-07  0.229E-06  0.207E-06  0.925E-06  0.104E-05
 -15.029  0.299E-05  0.426E-07  0.291E-06  0.275E-06  0.118E-05  0.121E-05
 -15.019  0.441E-05  0.583E-07  0.415E-06  0.367E-06  0.164E-05  0.193E-05
 -15.009  0.419E-05  0.547E-07  0.390E-06  0.361E-06  0.160E-05  0.179E-05
 -14.999  0.397E-05  0.513E-07  0.366E-06  0.352E-06  0.155E-05  0.166E-05
 -14.989  0.375E-05  0.480E-07  0.343E-06  0.341E-06  0.148E-05  0.153E-05
 -14.979  0.351E-05  0.447E-07  0.320E-06  0.326E-06  0.141E-05  0.141E-05
 -14.969  0.327E-05  0.416E-07  0.298E-06  0.308E-06  0.133E-05  0.129E-05
 -14.959  0.301E-05  0.385E-07  0.276E-06  0.288E-06  0.123E-05  0.118E-05
 -14.949  0.275E-05  0.355E-07  0.255E-06  0.265E-06  0.113E-05  0.107E-05
 -14.939  0.248E-05  0.327E-07  0.235E-06  0.238E-06  0.101E-05  0.964E-06
 -14.929  0.220E-05  0.299E-07  0.215E-06  0.209E-06  0.882E-06  0.865E-06
 -14.919  0.191E-05  0.272E-07  0.196E-06  0.176E-06  0.743E-06  0.771E-06
 -14.909  0.162E-05  0.247E-07  0.178E-06  0.141E-06  0.594E-06  0.683E-06
 -14.899  0.145E-05  0.236E-07  0.168E-06  0.122E-06  0.511E-06  0.626E-06
 -14.889  0.139E-05  0.233E-07  0.164E-06  0.120E-06  0.494E-06  0.594E-06
 -14.879  0.134E-05  0.231E-07  0.160E-06  0.117E-06  0.477E-06  0.563E-06
 -14.869  0.133E-05  0.250E-07  0.166E-06  0.118E-06  0.470E-06  0.552E-06
 -14.859  0.363E-05  0.549E-07  0.415E-06  0.335E-06  0.138E-05  0.144E-05
 -14.849  0.291E-05  0.521E-07  0.359E-06  0.269E-06  0.106E-05  0.117E-05
 -14.839  0.230E-05  0.475E-07  0.304E-06  0.212E-06  0.806E-06  0.928E-06
 -14.829  0.179E-05  0.411E-07  0.250E-06  0.164E-06  0.603E-06  0.727E-06
 -14.819  0.138E-05  0.330E-07  0.198E-06  0.125E-06  0.453E-06  0.565E-06
 -14.809  0.107E-05  0.230E-07  0.146E-06  0.963E-07  0.358E-06  0.442E-06
 -14.799  0.129E-05  0.235E-07  0.159E-06  0.118E-06  0.461E-06  0.529E-06
 -14.789  0.162E-05  0.262E-07  0.186E-06  0.151E-06  0.604E-06  0.652E-06
 -14.779  0.193E-05  0.290E-07  0.211E-06  0.183E-06  0.743E-06  0.765E-06
 -14.769  0.223E-05  0.318E-07  0.236E-06  0.215E-06  0.878E-06  0.870E-06
 -14.759  0.252E-05  0.347E-07  0.259E-06  0.247E-06  0.101E-05  0.965E-06
 -14.749  0.279E-05  0.377E-07  0.282E-06  0.278E-06  0.114E-05  0.105E-05
 -14.739  0.304E-05  0.407E-07  0.304E-06  0.309E-06  0.126E-05  0.113E-05
 -14.729  0.329E-05  0.438E-07  0.326E-06  0.340E-06  0.138E-05  0.120E-05
 -14.719  0.352E-05  0.470E-07  0.346E-06  0.370E-06  0.150E-05  0.126E-05
 -14.709  0.373E-05  0.503E-07  0.366E-06  0.400E-06  0.161E-05  0.131E-05
 -14.699  0.232E-05  0.274E-07  0.217E-06  0.214E-06  0.917E-06  0.946E-06
 -14.689  0.203E-05  0.222E-07  0.191E-06  0.194E-06  0.825E-06  0.799E-06
 -14.679  0.203E-05  0.222E-07  0.190E-06  0.194E-06  0.825E-06  0.799E-06
 -14.669  0.203E-05  0.222E-07  0.190E-06  0.193E-06  0.824E-06  0.799E-06
 -14.659  0.203E-05  0.222E-07  0.189E-06  0.193E-06  0.824E-06  0.798E-06
 -14.649  0.202E-05  0.223E-07  0.188E-06  0.193E-06  0.823E-06  0.796E-06
 -14.639  0.202E-05  0.223E-07  0.187E-06  0.192E-06  0.822E-06  0.795E-06
 -14.629  0.201E-05  0.224E-07  0.186E-06  0.192E-06  0.821E-06  0.792E-06
 -14.619  0.201E-05  0.225E-07  0.185E-06  0.192E-06  0.820E-06  0.789E-06
 -14.609  0.200E-05  0.226E-07  0.184E-06  0.191E-06  0.819E-06  0.786E-06
 -14.599  0.200E-05  0.228E-07  0.183E-06  0.191E-06  0.817E-06  0.782E-06
 -14.589  0.199E-05  0.229E-07  0.181E-06  0.190E-06  0.816E-06  0.778E-06
 -14.579  0.198E-05  0.231E-07  0.180E-06  0.190E-06  0.814E-06  0.773E-06
 -14.569  0.197E-05  0.233E-07  0.178E-06  0.189E-06  0.813E-06  0.767E-06
 -14.559  0.265E-05  0.251E-07  0.217E-06  0.280E-06  0.119E-05  0.933E-06
 -14.549  0.523E-05  0.459E-07  0.437E-06  0.557E-06  0.238E-05  0.181E-05
 -14.539  0.843E-05  0.906E-07  0.802E-06  0.814E-06  0.353E-05  0.319E-05
 -14.529  0.208E-05  0.274E-07  0.192E-06  0.198E-06  0.848E-06  0.813E-06
 -14.519  0.207E-05  0.274E-07  0.191E-06  0.196E-06  0.841E-06  0.812E-06
 -14.509  0.206E-05  0.275E-07  0.190E-06  0.194E-06  0.835E-06  0.812E-06
 -14.499  0.205E-05  0.276E-07  0.189E-06  0.192E-06  0.829E-06  0.812E-06
 -14.489  0.204E-05  0.277E-07  0.189E-06  0.191E-06  0.823E-06  0.813E-06
 -14.479  0.204E-05  0.277E-07  0.188E-06  0.189E-06  0.818E-06  0.813E-06
 -14.469  0.203E-05  0.278E-07  0.188E-06  0.187E-06  0.813E-06  0.814E-06
 -14.459  0.202E-05  0.278E-07  0.187E-06  0.186E-06  0.808E-06  0.816E-06
 -14.449  0.205E-05  0.284E-07  0.189E-06  0.186E-06  0.812E-06  0.830E-06
 -14.439  0.207E-05  0.290E-07  0.191E-06  0.187E-06  0.820E-06  0.846E-06
 -14.429  0.210E-05  0.296E-07  0.194E-06  0.189E-06  0.828E-06  0.861E-06
 -14.419  0.213E-05  0.301E-07  0.196E-06  0.190E-06  0.836E-06  0.875E-06
 -14.409  0.215E-05  0.306E-07  0.198E-06  0.192E-06  0.846E-06  0.887E-06
 -14.399  0.218E-05  0.310E-07  0.200E-06  0.194E-06  0.855E-06  0.897E-06
 -14.389  0.220E-05  0.314E-07  0.202E-06  0.196E-06  0.866E-06  0.906E-06
 -14.379  0.222E-05  0.317E-07  0.203E-06  0.198E-06  0.877E-06  0.913E-06
 -14.369  0.224E-05  0.319E-07  0.205E-06  0.201E-06  0.889E-06  0.919E-06
 -14.359  0.226E-05  0.321E-07  0.206E-06  0.203E-06  0.901E-06  0.923E-06
 -14.349  0.228E-05  0.322E-07  0.207E-06  0.206E-06  0.914E-06  0.925E-06
 -14.339  0.230E-05  0.323E-07  0.208E-06  0.208E-06  0.927E-06  0.926E-06
 -14.329  0.231E-05  0.322E-07  0.208E-06  0.210E-06  0.934E-06  0.923E-06
 -14.319  0.231E-05  0.321E-07  0.208E-06  0.210E-06  0.941E-06  0.921E-06
 -14.309  0.233E-05  0.323E-07  0.210E-06  0.212E-06  0.951E-06  0.924E-06
 -14.299  0.237E-05  0.329E-07  0.213E-06  0.215E-06  0.967E-06  0.938E-06
 -14.289  0.240E-05  0.335E-07  0.217E-06  0.218E-06  0.983E-06  0.951E-06
 -14.279  0.244E-05  0.342E-07  0.221E-06  0.220E-06  0.998E-06  0.964E-06
 -14.269  0.247E-05  0.348E-07  0.224E-06  0.223E-06  0.101E-05  0.977E-06
 -14.259  0.250E-05  0.354E-07  0.228E-06  0.225E-06  0.103E-05  0.989E-06
 -14.249  0.254E-05  0.359E-07  0.231E-06  0.227E-06  0.104E-05  0.100E-05
 -14.239  0.257E-05  0.365E-07  0.234E-06  0.229E-06  0.106E-05  0.101E-05
 -14.229  0.260E-05  0.370E-07  0.237E-06  0.231E-06  0.107E-05  0.102E-05
 -14.219  0.310E-05  0.439E-07  0.285E-06  0.274E-06  0.128E-05  0.122E-05
 -14.209  0.266E-05  0.344E-07  0.228E-06  0.248E-06  0.116E-05  0.988E-06
 -14.199  0.221E-05  0.270E-07  0.178E-06  0.215E-06  0.100E-05  0.789E-06
 -14.189  0.175E-05  0.217E-07  0.135E-06  0.174E-06  0.803E-06  0.619E-06
 -14.179  0.129E-05  0.185E-07  0.101E-06  0.125E-06  0.568E-06  0.480E-06
 -14.169  0.857E-06  0.174E-07  0.764E-07  0.732E-07  0.314E-06  0.376E-06
 -14.159  0.127E-05  0.242E-07  0.122E-06  0.112E-06  0.466E-06  0.546E-06
 -14.149  0.201E-05  0.389E-07  0.185E-06  0.180E-06  0.746E-06  0.856E-06
 -14.139  0.215E-05  0.423E-07  0.193E-06  0.192E-06  0.803E-06  0.916E-06
 -14.129  0.206E-05  0.409E-07  0.183E-06  0.182E-06  0.771E-06  0.879E-06
 -14.119  0.196E-05  0.396E-07  0.172E-06  0.172E-06  0.738E-06  0.842E-06
 -14.109  0.187E-05  0.383E-07  0.162E-06  0.162E-06  0.703E-06  0.805E-06
 -14.099  0.178E-05  0.369E-07  0.152E-06  0.152E-06  0.666E-06  0.768E-06
 -14.089  0.168E-05  0.356E-07  0.141E-06  0.142E-06  0.629E-06  0.731E-06
 -14.079  0.158E-05  0.343E-07  0.131E-06  0.132E-06  0.590E-06  0.695E-06
 -14.069  0.856E-06  0.216E-07  0.727E-07  0.618E-07  0.288E-06  0.412E-06
 -14.059  0.883E-06  0.222E-07  0.745E-07  0.643E-07  0.298E-06  0.424E-06
 -14.049  0.908E-06  0.227E-07  0.762E-07  0.668E-07  0.309E-06  0.433E-06
 -14.039  0.931E-06  0.231E-07  0.775E-07  0.694E-07  0.320E-06  0.441E-06
 -14.029  0.951E-06  0.234E-07  0.787E-07  0.719E-07  0.330E-06  0.447E-06
 -14.019  0.970E-06  0.236E-07  0.796E-07  0.745E-07  0.340E-06  0.452E-06
 -14.009  0.986E-06  0.237E-07  0.802E-07  0.771E-07  0.351E-06  0.454E-06
 -13.999  0.100E-05  0.237E-07  0.805E-07  0.797E-07  0.361E-06  0.455E-06
 -13.989  0.101E-05  0.236E-07  0.807E-07  0.823E-07  0.371E-06  0.455E-06
 -13.979  0.102E-05  0.233E-07  0.805E-07  0.849E-07  0.382E-06  0.452E-06
 -13.969  0.103E-05  0.230E-07  0.802E-07  0.876E-07  0.392E-06  0.448E-06
 -13.959  0.104E-05  0.226E-07  0.795E-07  0.902E-07  0.402E-06  0.442E-06
 -13.949  0.104E-05  0.220E-07  0.786E-07  0.929E-07  0.412E-06  0.434E-06
 -13.939  0.104E-05  0.214E-07  0.775E-07  0.956E-07  0.422E-06  0.425E-06
 -13.929  0.104E-05  0.207E-07  0.761E-07  0.983E-07  0.432E-06  0.414E-06
 -13.919  0.261E-05  0.576E-07  0.191E-06  0.240E-06  0.104E-05  0.108E-05
 -13.909  0.259E-05  0.562E-07  0.191E-06  0.239E-06  0.105E-05  0.105E-05
 -13.899  0.258E-05  0.541E-07  0.191E-06  0.238E-06  0.107E-05  0.102E-05
 -13.889  0.256E-05  0.516E-07  0.191E-06  0.239E-06  0.110E-05  0.978E-06
 -13.879  0.254E-05  0.485E-07  0.189E-06  0.241E-06  0.113E-05  0.934E-06
 -13.869  0.253E-05  0.449E-07  0.188E-06  0.244E-06  0.117E-05  0.885E-06
 -13.859  0.202E-05  0.306E-07  0.144E-06  0.205E-06  0.986E-06  0.654E-06
 -13.849  0.129E-05  0.189E-07  0.895E-07  0.136E-06  0.639E-06  0.408E-06
 -13.839  0.993E-06  0.201E-07  0.737E-07  0.967E-07  0.443E-06  0.359E-06
 -13.829  0.128E-05  0.328E-07  0.103E-06  0.109E-06  0.510E-06  0.522E-06
 -13.819  0.158E-05  0.446E-07  0.130E-06  0.127E-06  0.598E-06  0.681E-06
 -13.809  0.190E-05  0.552E-07  0.155E-06  0.150E-06  0.706E-06  0.835E-06
 -13.799  0.224E-05  0.648E-07  0.179E-06  0.179E-06  0.834E-06  0.984E-06
 -13.789  0.260E-05  0.734E-07  0.201E-06  0.213E-06  0.983E-06  0.113E-05
 -13.779  0.298E-05  0.809E-07  0.221E-06  0.252E-06  0.115E-05  0.127E-05
 -13.769  0.698E-05  0.183E-06  0.490E-06  0.603E-06  0.275E-05  0.295E-05
 -13.759  0.392E-05  0.105E-06  0.272E-06  0.328E-06  0.153E-05  0.169E-05
 -13.749  0.256E-05  0.704E-07  0.182E-06  0.196E-06  0.989E-06  0.112E-05
 -13.739  0.243E-05  0.685E-07  0.171E-06  0.181E-06  0.927E-06  0.109E-05
 -13.729  0.228E-05  0.652E-07  0.159E-06  0.165E-06  0.856E-06  0.103E-05
 -13.719  0.208E-05  0.604E-07  0.145E-06  0.148E-06  0.777E-06  0.953E-06
 -13.709  0.186E-05  0.542E-07  0.129E-06  0.131E-06  0.691E-06  0.851E-06
 -13.699  0.159E-05  0.465E-07  0.113E-06  0.112E-06  0.598E-06  0.725E-06
 -13.689  0.130E-05  0.375E-07  0.948E-07  0.938E-07  0.501E-06  0.577E-06
 -13.679  0.990E-06  0.273E-07  0.760E-07  0.761E-07  0.401E-06  0.409E-06
 -13.669  0.980E-06  0.272E-07  0.751E-07  0.756E-07  0.398E-06  0.404E-06
 -13.659  0.983E-06  0.274E-07  0.748E-07  0.758E-07  0.399E-06  0.406E-06
 -13.649  0.987E-06  0.277E-07  0.746E-07  0.761E-07  0.400E-06  0.408E-06
 -13.639  0.105E-05  0.292E-07  0.792E-07  0.796E-07  0.423E-06  0.443E-06
 -13.629  0.112E-05  0.310E-07  0.836E-07  0.837E-07  0.446E-06  0.477E-06
 -13.619  0.119E-05  0.330E-07  0.880E-07  0.886E-07  0.470E-06  0.512E-06
 -13.609  0.126E-05  0.353E-07  0.923E-07  0.940E-07  0.495E-06  0.547E-06
 -13.599  0.134E-05  0.378E-07  0.964E-07  0.100E-06  0.522E-06  0.582E-06
 -13.589  0.141E-05  0.405E-07  0.100E-06  0.107E-06  0.549E-06  0.617E-06
 -13.579  0.149E-05  0.433E-07  0.104E-06  0.114E-06  0.577E-06  0.652E-06
 -13.569  0.157E-05  0.464E-07  0.108E-06  0.122E-06  0.605E-06  0.687E-06
 -13.559  0.165E-05  0.497E-07  0.112E-06  0.130E-06  0.635E-06  0.722E-06
 -13.549  0.173E-05  0.532E-07  0.115E-06  0.139E-06  0.666E-06  0.757E-06
 -13.539  0.181E-05  0.569E-07  0.119E-06  0.149E-06  0.697E-06  0.792E-06
 -13.529  0.190E-05  0.608E-07  0.122E-06  0.159E-06  0.730E-06  0.827E-06
 -13.519  0.199E-05  0.649E-07  0.125E-06  0.170E-06  0.763E-06  0.863E-06
 -13.509  0.160E-05  0.546E-07  0.104E-06  0.136E-06  0.618E-06  0.684E-06
 -13.499  0.153E-05  0.544E-07  0.101E-06  0.131E-06  0.591E-06  0.651E-06
 -13.489  0.149E-05  0.546E-07  0.987E-07  0.128E-06  0.581E-06  0.628E-06
 -13.479  0.367E-05  0.146E-06  0.292E-06  0.257E-06  0.128E-05  0.170E-05
 -13.469  0.128E-05  0.509E-07  0.863E-07  0.111E-06  0.495E-06  0.539E-06
 -13.459  0.109E-05  0.461E-07  0.733E-07  0.964E-07  0.419E-06  0.459E-06
 -13.449  0.108E-05  0.458E-07  0.726E-07  0.953E-07  0.416E-06  0.454E-06
 -13.439  0.108E-05  0.455E-07  0.721E-07  0.949E-07  0.415E-06  0.452E-06
 -13.429  0.108E-05  0.451E-07  0.718E-07  0.950E-07  0.417E-06  0.455E-06
 -13.419  0.109E-05  0.443E-07  0.715E-07  0.950E-07  0.420E-06  0.458E-06
 -13.409  0.109E-05  0.435E-07  0.711E-07  0.949E-07  0.421E-06  0.460E-06
 -13.399  0.109E-05  0.427E-07  0.709E-07  0.945E-07  0.423E-06  0.462E-06
 -13.389  0.109E-05  0.419E-07  0.707E-07  0.940E-07  0.424E-06  0.464E-06
 -13.379  0.109E-05  0.411E-07  0.705E-07  0.933E-07  0.424E-06  0.465E-06
 -13.369  0.108E-05  0.404E-07  0.699E-07  0.920E-07  0.419E-06  0.461E-06
 -13.359  0.106E-05  0.396E-07  0.691E-07  0.900E-07  0.411E-06  0.454E-06
 -13.349  0.104E-05  0.388E-07  0.682E-07  0.877E-07  0.401E-06  0.446E-06
 -13.339  0.102E-05  0.381E-07  0.676E-07  0.854E-07  0.392E-06  0.439E-06
 -13.329  0.102E-05  0.382E-07  0.679E-07  0.851E-07  0.390E-06  0.442E-06
 -13.319  0.102E-05  0.383E-07  0.683E-07  0.848E-07  0.388E-06  0.445E-06
 -13.309  0.102E-05  0.384E-07  0.685E-07  0.845E-07  0.386E-06  0.447E-06
 -13.299  0.102E-05  0.385E-07  0.687E-07  0.841E-07  0.383E-06  0.450E-06
 -13.289  0.102E-05  0.386E-07  0.688E-07  0.837E-07  0.380E-06  0.452E-06
 -13.279  0.102E-05  0.387E-07  0.689E-07  0.832E-07  0.377E-06  0.454E-06
 -13.269  0.134E-05  0.505E-07  0.860E-07  0.112E-06  0.489E-06  0.606E-06
 -13.259  0.134E-05  0.503E-07  0.858E-07  0.111E-06  0.484E-06  0.609E-06
 -13.249  0.134E-05  0.502E-07  0.856E-07  0.111E-06  0.479E-06  0.611E-06
 -13.239  0.133E-05  0.502E-07  0.853E-07  0.110E-06  0.474E-06  0.612E-06
 -13.229  0.133E-05  0.502E-07  0.850E-07  0.110E-06  0.470E-06  0.611E-06
 -13.219  0.132E-05  0.503E-07  0.845E-07  0.110E-06  0.465E-06  0.609E-06
 -13.209  0.131E-05  0.504E-07  0.840E-07  0.110E-06  0.460E-06  0.606E-06
 -13.199  0.130E-05  0.506E-07  0.834E-07  0.110E-06  0.456E-06  0.601E-06
 -13.189  0.129E-05  0.508E-07  0.827E-07  0.110E-06  0.452E-06  0.595E-06
 -13.179  0.128E-05  0.511E-07  0.820E-07  0.110E-06  0.448E-06  0.587E-06
 -13.169  0.126E-05  0.515E-07  0.811E-07  0.110E-06  0.443E-06  0.579E-06
 -13.159  0.126E-05  0.520E-07  0.808E-07  0.111E-06  0.442E-06  0.572E-06
 -13.149  0.127E-05  0.529E-07  0.817E-07  0.113E-06  0.449E-06  0.570E-06
 -13.139  0.179E-05  0.801E-07  0.105E-06  0.168E-06  0.682E-06  0.758E-06
 -13.129  0.241E-05  0.115E-06  0.139E-06  0.238E-06  0.986E-06  0.933E-06
 -13.119  0.311E-05  0.158E-06  0.183E-06  0.320E-06  0.136E-05  0.109E-05
 -13.109  0.231E-05  0.111E-06  0.140E-06  0.229E-06  0.951E-06  0.879E-06
 -13.099  0.193E-05  0.897E-07  0.122E-06  0.183E-06  0.739E-06  0.794E-06
 -13.089  0.160E-05  0.745E-07  0.101E-06  0.155E-06  0.594E-06  0.673E-06
 -13.079  0.133E-05  0.634E-07  0.766E-07  0.143E-06  0.520E-06  0.522E-06
 -13.069  0.124E-05  0.610E-07  0.690E-07  0.136E-06  0.487E-06  0.489E-06
 -13.059  0.104E-05  0.509E-07  0.546E-07  0.111E-06  0.388E-06  0.434E-06
 -13.049  0.872E-06  0.413E-07  0.427E-07  0.897E-07  0.307E-06  0.391E-06
 -13.039  0.758E-06  0.344E-07  0.347E-07  0.736E-07  0.249E-06  0.366E-06
 -13.029  0.680E-06  0.293E-07  0.291E-07  0.619E-07  0.209E-06  0.350E-06
 -13.019  0.293E-07  0.330E-08  0.221E-08  0.461E-08  0.687E-08  0.123E-07
 -13.009  0.529E-07  0.420E-08  0.371E-08  0.852E-08  0.168E-07  0.197E-07
 -12.999  0.138E-06  0.760E-08  0.938E-08  0.233E-07  0.545E-07  0.434E-07
 -12.989  0.250E-06  0.107E-07  0.159E-07  0.373E-07  0.960E-07  0.902E-07
 -12.979  0.471E-06  0.142E-07  0.268E-07  0.529E-07  0.162E-06  0.215E-06
 -12.969  0.670E-06  0.173E-07  0.362E-07  0.670E-07  0.220E-06  0.329E-06
 -12.959  0.848E-06  0.199E-07  0.440E-07  0.795E-07  0.272E-06  0.433E-06
 -12.949  0.108E-05  0.239E-07  0.542E-07  0.998E-07  0.342E-06  0.556E-06
 -12.939  0.132E-05  0.280E-07  0.644E-07  0.119E-06  0.415E-06  0.689E-06
 -12.929  0.154E-05  0.318E-07  0.738E-07  0.136E-06  0.482E-06  0.819E-06
 -12.919  0.176E-05  0.353E-07  0.822E-07  0.151E-06  0.544E-06  0.944E-06
 -12.909  0.209E-05  0.406E-07  0.953E-07  0.177E-06  0.638E-06  0.113E-05
 -12.899  0.289E-05  0.549E-07  0.118E-06  0.213E-06  0.842E-06  0.166E-05
 -12.889  0.211E-05  0.428E-07  0.976E-07  0.161E-06  0.648E-06  0.116E-05
 -12.879  0.204E-05  0.409E-07  0.963E-07  0.152E-06  0.633E-06  0.112E-05
 -12.869  0.198E-05  0.392E-07  0.953E-07  0.145E-06  0.618E-06  0.108E-05
 -12.859  0.191E-05  0.375E-07  0.946E-07  0.141E-06  0.603E-06  0.103E-05
 -12.849  0.185E-05  0.359E-07  0.943E-07  0.137E-06  0.589E-06  0.988E-06
 -12.839  0.180E-05  0.351E-07  0.950E-07  0.137E-06  0.580E-06  0.950E-06
 -12.829  0.183E-05  0.377E-07  0.100E-06  0.142E-06  0.593E-06  0.955E-06
 -12.819  0.185E-05  0.402E-07  0.104E-06  0.147E-06  0.605E-06  0.953E-06
 -12.809  0.186E-05  0.426E-07  0.109E-06  0.152E-06  0.615E-06  0.945E-06
 -12.799  0.171E-05  0.401E-07  0.107E-06  0.152E-06  0.576E-06  0.832E-06
 -12.789  0.167E-05  0.423E-07  0.111E-06  0.159E-06  0.572E-06  0.787E-06
 -12.779  0.307E-05  0.714E-07  0.206E-06  0.372E-06  0.123E-05  0.119E-05
 -12.769  0.289E-05  0.694E-07  0.218E-06  0.376E-06  0.960E-06  0.126E-05
 -12.759  0.114E-05  0.314E-07  0.847E-07  0.137E-06  0.366E-06  0.521E-06
 -12.749  0.105E-05  0.297E-07  0.781E-07  0.125E-06  0.338E-06  0.478E-06
 -12.739  0.961E-06  0.281E-07  0.722E-07  0.114E-06  0.311E-06  0.436E-06
 -12.729  0.876E-06  0.267E-07  0.668E-07  0.104E-06  0.284E-06  0.394E-06
 -12.719  0.795E-06  0.254E-07  0.621E-07  0.959E-07  0.259E-06  0.353E-06
 -12.709  0.717E-06  0.242E-07  0.579E-07  0.892E-07  0.234E-06  0.312E-06
 -12.699  0.643E-06  0.231E-07  0.543E-07  0.839E-07  0.209E-06  0.272E-06
 -12.689  0.575E-06  0.221E-07  0.514E-07  0.800E-07  0.186E-06  0.235E-06
 -12.679  0.527E-06  0.214E-07  0.493E-07  0.777E-07  0.169E-06  0.210E-06
 -12.669  0.484E-06  0.207E-07  0.477E-07  0.767E-07  0.151E-06  0.187E-06
 -12.659  0.443E-06  0.201E-07  0.466E-07  0.770E-07  0.135E-06  0.165E-06
 -12.649  0.409E-06  0.195E-07  0.462E-07  0.786E-07  0.120E-06  0.145E-06
 -12.639  0.421E-06  0.191E-07  0.476E-07  0.817E-07  0.124E-06  0.149E-06
 -12.629  0.516E-06  0.191E-07  0.655E-07  0.122E-06  0.137E-06  0.173E-06
 -12.619  0.626E-06  0.194E-07  0.836E-07  0.161E-06  0.158E-06  0.204E-06
 -12.609  0.737E-06  0.200E-07  0.990E-07  0.193E-06  0.186E-06  0.240E-06
 -12.599  0.849E-06  0.209E-07  0.112E-06  0.217E-06  0.220E-06  0.280E-06
 -12.589  0.963E-06  0.220E-07  0.122E-06  0.234E-06  0.260E-06  0.324E-06
 -12.579  0.108E-05  0.235E-07  0.130E-06  0.244E-06  0.307E-06  0.373E-06
 -12.569  0.557E-06  0.154E-07  0.629E-07  0.114E-06  0.172E-06  0.193E-06
 -12.559  0.567E-06  0.148E-07  0.640E-07  0.118E-06  0.178E-06  0.193E-06
 -12.549  0.575E-06  0.142E-07  0.649E-07  0.122E-06  0.184E-06  0.190E-06
 -12.539  0.581E-06  0.138E-07  0.655E-07  0.126E-06  0.191E-06  0.184E-06
 -12.529  0.581E-06  0.134E-07  0.654E-07  0.130E-06  0.197E-06  0.176E-06
 -12.519  0.623E-06  0.162E-07  0.727E-07  0.138E-06  0.199E-06  0.197E-06
 -12.509  0.626E-06  0.173E-07  0.745E-07  0.140E-06  0.194E-06  0.200E-06
 -12.499  0.594E-06  0.169E-07  0.722E-07  0.135E-06  0.179E-06  0.190E-06
 -12.489  0.562E-06  0.165E-07  0.698E-07  0.131E-06  0.165E-06  0.181E-06
 -12.479  0.532E-06  0.160E-07  0.674E-07  0.126E-06  0.151E-06  0.172E-06
 -12.469  0.502E-06  0.156E-07  0.650E-07  0.121E-06  0.137E-06  0.163E-06
 -12.459  0.473E-06  0.151E-07  0.626E-07  0.116E-06  0.124E-06  0.154E-06
 -12.449  0.444E-06  0.146E-07  0.602E-07  0.112E-06  0.112E-06  0.146E-06
 -12.439  0.417E-06  0.140E-07  0.577E-07  0.107E-06  0.998E-07  0.138E-06
 -12.429  0.396E-06  0.135E-07  0.561E-07  0.104E-06  0.907E-07  0.131E-06
 -12.419  0.383E-06  0.127E-07  0.548E-07  0.105E-06  0.883E-07  0.122E-06
 -12.409  0.370E-06  0.119E-07  0.535E-07  0.106E-06  0.862E-07  0.112E-06
 -12.399  0.357E-06  0.112E-07  0.522E-07  0.107E-06  0.843E-07  0.102E-06
 -12.389  0.345E-06  0.107E-07  0.508E-07  0.108E-06  0.829E-07  0.922E-07
 -12.379  0.333E-06  0.102E-07  0.494E-07  0.109E-06  0.817E-07  0.823E-07
 -12.369  0.321E-06  0.979E-08  0.480E-07  0.110E-06  0.809E-07  0.725E-07
 -12.359  0.310E-06  0.948E-08  0.466E-07  0.111E-06  0.804E-07  0.626E-07
 -12.349  0.419E-06  0.131E-07  0.641E-07  0.157E-06  0.107E-06  0.775E-07
 -12.339  0.328E-06  0.106E-07  0.513E-07  0.129E-06  0.816E-07  0.554E-07
 -12.329  0.243E-06  0.806E-08  0.388E-07  0.101E-06  0.585E-07  0.369E-07
 -12.319  0.164E-06  0.561E-08  0.269E-07  0.715E-07  0.381E-07  0.218E-07
 -12.309  0.910E-07  0.322E-08  0.153E-07  0.419E-07  0.203E-07  0.102E-07
 -12.299  0.242E-07  0.889E-09  0.419E-08  0.118E-07  0.516E-08  0.218E-08
 -12.289  0.000E+00  0.000E+00  0.000E+00  0.000E+00  0.000E+00  0.000E+00
 -12.279  0.000E+00  0.000E+00  0.000E+00  0.000E+00  0.000E+00  0.000E+00
 -12.269  0.000E+00  0.000E+00  0.000E+00  0.000E+00  0.000E+00  0.000E+00
 -12.259  0.000E+00  0.000E+00  0.000E+00  0.000E+00  0.000E+00  0.000E+00
 -12.249  0.000E+00  0.000E+00  0.000E+00  0.000E+00  0.000E+00  0.000E+00
 -12.239  0.000E+00  0.000E+00  0.000E+00  0.000E+00  0.000E+00  0.000E+00
 -12.229  0.000E+00  0.000E+00  0.000E+00  0.000E+00  0.000E+00  0.000E+00
 -12.219  0.000E+00  0.000E+00  0.000E+00  0.000E+00  0.000E+00  0.000E+00
 -12.209  0.000E+00  0.000E+00  0.000E+00  0.000E+00  0.000E+00  0.000E+00
 -12.199  0.000E+00  0.000E+00  0.000E+00  0.000E+00  0.000E+00  0.000E+00
 -12.189  0.000E+00  0.000E+00  0.000E+00  0.000E+00  0.000E+00  0.000E+00
 -12.179  0.000E+00  0.000E+00  0.000E+00  0.000E+00  0.000E+00  0.000E+00
 -12.169  0.000E+00  0.000E+00  0.000E+00  0.000E+00  0.000E+00  0.000E+00
 -12.159  0.000E+00  0.000E+00  0.000E+00  0.000E+00  0.000E+00  0.000E+00
 -12.149  0.000E+00  0.000E+00  0.000E+00  0.000E+00  0.000E+00  0.000E+00
 -12.139  0.000E+00  0.000E+00  0.000E+00  0.000E+00  0.000E+00  0.000E+00
 -12.129  0.000E+00  0.000E+00  0.000E+00  0.000E+00  0.000E+00  0.000E+00
 -12.119  0.000E+00  0.000E+00  0.000E+00  0.000E+00  0.000E+00  0.000E+00
 -12.109  0.000E+00  0.000E+00  0.000E+00  0.000E+00  0.000E+00  0.000E+00
 -12.099  0.000E+00  0.000E+00  0.000E+00  0.000E+00  0.000E+00  0.000E+00
 -12.089  0.000E+00  0.000E+00  0.000E+00  0.000E+00  0.000E+00  0.000E+00
 -12.079  0.000E+00  0.000E+00  0.000E+00  0.000E+00  0.000E+00  0.000E+00
 -12.069  0.000E+00  0.000E+00  0.000E+00  0.000E+00  0.000E+00  0.000E+00
 -12.059  0.000E+00  0.000E+00  0.000E+00  0.000E+00  0.000E+00  0.000E+00
 -12.049  0.000E+00  0.000E+00  0.000E+00  0.000E+00  0.000E+00  0.000E+00
 -12.039  0.000E+00  0.000E+00  0.000E+00  0.000E+00  0.000E+00  0.000E+00
 -12.029  0.000E+00  0.000E+00  0.000E+00  0.000E+00  0.000E+00  0.000E+00
 -12.019  0.000E+00  0.000E+00  0.000E+00  0.000E+00  0.000E+00  0.000E+00
 -12.009  0.000E+00  0.000E+00  0.000E+00  0.000E+00  0.000E+00  0.000E+00
 -11.999  0.150E-03  0.149E-03  0.218E-06  0.207E-06  0.603E-06  0.670E-06
 -11.989  0.461E-03  0.447E-03  0.181E-05  0.184E-05  0.524E-05  0.526E-05
 -11.979  0.780E-03  0.742E-03  0.494E-05  0.508E-05  0.144E-04  0.142E-04
 -11.969  0.515E-03  0.480E-03  0.445E-05  0.461E-05  0.131E-04  0.127E-04
 -11.959  0.547E-03  0.501E-03  0.591E-05  0.617E-05  0.174E-04  0.168E-04
 -11.949  0.580E-03  0.521E-03  0.750E-05  0.785E-05  0.221E-04  0.211E-04
 -11.939  0.613E-03  0.541E-03  0.920E-05  0.966E-05  0.271E-04  0.259E-04
 -11.929  0.647E-03  0.561E-03  0.110E-04  0.116E-04  0.325E-04  0.309E-04
 -11.919  0.682E-03  0.581E-03  0.130E-04  0.137E-04  0.382E-04  0.363E-04
 -11.909  0.717E-03  0.600E-03  0.150E-04  0.158E-04  0.442E-04  0.420E-04
 -11.899  0.710E-03  0.584E-03  0.162E-04  0.171E-04  0.478E-04  0.453E-04
 -11.889  0.683E-03  0.552E-03  0.169E-04  0.179E-04  0.498E-04  0.470E-04
 -11.879  0.656E-03  0.520E-03  0.174E-04  0.185E-04  0.513E-04  0.483E-04
 -11.869  0.647E-03  0.504E-03  0.183E-04  0.195E-04  0.541E-04  0.507E-04
 -11.859  0.666E-03  0.509E-03  0.200E-04  0.215E-04  0.595E-04  0.555E-04
 -11.849  0.684E-03  0.513E-03  0.219E-04  0.237E-04  0.654E-04  0.607E-04
 -11.839  0.703E-03  0.515E-03  0.240E-04  0.260E-04  0.718E-04  0.662E-04
 -11.829  0.721E-03  0.516E-03  0.261E-04  0.286E-04  0.787E-04  0.720E-04
 -11.819  0.739E-03  0.515E-03  0.284E-04  0.313E-04  0.861E-04  0.782E-04
 -11.809  0.757E-03  0.514E-03  0.308E-04  0.342E-04  0.940E-04  0.848E-04
 -11.799  0.775E-03  0.511E-03  0.334E-04  0.372E-04  0.102E-03  0.917E-04
 -11.789  0.793E-03  0.506E-03  0.361E-04  0.405E-04  0.111E-03  0.990E-04
 -11.779  0.811E-03  0.501E-03  0.389E-04  0.439E-04  0.121E-03  0.107E-03
 -11.769  0.161E-02  0.977E-03  0.787E-04  0.899E-04  0.247E-03  0.215E-03
 -11.759  0.134E-02  0.754E-03  0.715E-04  0.850E-04  0.233E-03  0.195E-03
 -11.749  0.107E-02  0.560E-03  0.617E-04  0.761E-04  0.208E-03  0.168E-03
 -11.739  0.813E-03  0.394E-03  0.492E-04  0.633E-04  0.173E-03  0.134E-03
 -11.729  0.556E-03  0.256E-03  0.341E-04  0.466E-04  0.127E-03  0.925E-04
 -11.719  0.338E-03  0.157E-03  0.194E-04  0.295E-04  0.797E-04  0.521E-04
 -11.709  0.300E-03  0.129E-03  0.179E-04  0.283E-04  0.763E-04  0.480E-04
 -11.699  0.270E-03  0.111E-03  0.165E-04  0.266E-04  0.717E-04  0.440E-04
 -11.689  0.303E-03  0.149E-03  0.164E-04  0.255E-04  0.686E-04  0.439E-04
 -11.679  0.336E-03  0.185E-03  0.166E-04  0.244E-04  0.655E-04  0.444E-04
 -11.669  0.369E-03  0.221E-03  0.170E-04  0.233E-04  0.624E-04  0.455E-04
 -11.659  0.402E-03  0.255E-03  0.176E-04  0.222E-04  0.593E-04  0.472E-04
 -11.649  0.434E-03  0.289E-03  0.184E-04  0.211E-04  0.563E-04  0.494E-04
 -11.639  0.467E-03  0.322E-03  0.195E-04  0.200E-04  0.532E-04  0.522E-04
 -11.629  0.506E-03  0.355E-03  0.212E-04  0.200E-04  0.530E-04  0.571E-04
 -11.619  0.577E-03  0.390E-03  0.258E-04  0.250E-04  0.664E-04  0.694E-04
 -11.609  0.958E-03  0.578E-03  0.580E-04  0.439E-04  0.119E-03  0.160E-03
 -11.599  0.182E-02  0.103E-02  0.119E-03  0.929E-04  0.253E-03  0.327E-03
 -11.589  0.286E-02  0.160E-02  0.176E-03  0.162E-03  0.437E-03  0.478E-03
 -11.579  0.687E-03  0.417E-03  0.363E-04  0.371E-04  0.990E-04  0.973E-04
 -11.569  0.703E-03  0.423E-03  0.376E-04  0.387E-04  0.103E-03  0.100E-03
 -11.559  0.719E-03  0.429E-03  0.388E-04  0.403E-04  0.107E-03  0.104E-03
 -11.549  0.734E-03  0.433E-03  0.400E-04  0.420E-04  0.112E-03  0.107E-03
 -11.539  0.748E-03  0.437E-03  0.413E-04  0.437E-04  0.116E-03  0.110E-03
 -11.529  0.762E-03  0.439E-03  0.426E-04  0.455E-04  0.121E-03  0.113E-03
 -11.519  0.775E-03  0.441E-03  0.438E-04  0.474E-04  0.126E-03  0.117E-03
 -11.509  0.787E-03  0.442E-03  0.451E-04  0.493E-04  0.131E-03  0.120E-03
 -11.499  0.798E-03  0.441E-03  0.464E-04  0.513E-04  0.136E-03  0.123E-03
 -11.489  0.809E-03  0.440E-03  0.477E-04  0.533E-04  0.141E-03  0.127E-03
 -11.479  0.821E-03  0.439E-03  0.491E-04  0.555E-04  0.147E-03  0.131E-03
 -11.469  0.833E-03  0.437E-03  0.507E-04  0.577E-04  0.153E-03  0.135E-03
 -11.459  0.845E-03  0.435E-03  0.524E-04  0.601E-04  0.159E-03  0.139E-03
 -11.449  0.857E-03  0.431E-03  0.542E-04  0.625E-04  0.166E-03  0.144E-03
 -11.439  0.869E-03  0.427E-03  0.561E-04  0.649E-04  0.172E-03  0.149E-03
 -11.429  0.880E-03  0.422E-03  0.581E-04  0.674E-04  0.179E-03  0.154E-03
 -11.419  0.891E-03  0.416E-03  0.602E-04  0.700E-04  0.185E-03  0.160E-03
 -11.409  0.902E-03  0.409E-03  0.624E-04  0.726E-04  0.192E-03  0.166E-03
 -11.399  0.913E-03  0.401E-03  0.647E-04  0.753E-04  0.199E-03  0.172E-03
 -11.389  0.923E-03  0.392E-03  0.672E-04  0.780E-04  0.207E-03  0.179E-03
 -11.379  0.134E-02  0.596E-03  0.986E-04  0.105E-03  0.280E-03  0.262E-03
 -11.369  0.131E-02  0.582E-03  0.970E-04  0.101E-03  0.268E-03  0.258E-03
 -11.359  0.127E-02  0.564E-03  0.948E-04  0.975E-04  0.258E-03  0.252E-03
 -11.349  0.122E-02  0.542E-03  0.922E-04  0.940E-04  0.249E-03  0.244E-03
 -11.339  0.117E-02  0.516E-03  0.890E-04  0.908E-04  0.240E-03  0.236E-03
 -11.329  0.113E-02  0.489E-03  0.863E-04  0.893E-04  0.236E-03  0.229E-03
 -11.319  0.108E-02  0.459E-03  0.832E-04  0.884E-04  0.234E-03  0.221E-03
 -11.309  0.109E-02  0.455E-03  0.841E-04  0.904E-04  0.239E-03  0.223E-03
 -11.299  0.111E-02  0.460E-03  0.862E-04  0.930E-04  0.246E-03  0.229E-03
 -11.289  0.114E-02  0.464E-03  0.883E-04  0.957E-04  0.253E-03  0.234E-03
 -11.279  0.116E-02  0.469E-03  0.905E-04  0.984E-04  0.260E-03  0.240E-03
 -11.269  0.118E-02  0.474E-03  0.926E-04  0.101E-03  0.267E-03  0.246E-03
 -11.259  0.120E-02  0.480E-03  0.948E-04  0.104E-03  0.274E-03  0.252E-03
 -11.249  0.123E-02  0.485E-03  0.971E-04  0.107E-03  0.281E-03  0.258E-03
 -11.239  0.125E-02  0.491E-03  0.993E-04  0.109E-03  0.289E-03  0.264E-03
 -11.229  0.128E-02  0.497E-03  0.102E-03  0.112E-03  0.296E-03  0.270E-03
 -11.219  0.130E-02  0.503E-03  0.104E-03  0.115E-03  0.303E-03  0.276E-03
 -11.209  0.133E-02  0.509E-03  0.106E-03  0.118E-03  0.311E-03  0.282E-03
 -11.199  0.110E-02  0.427E-03  0.874E-04  0.968E-04  0.256E-03  0.233E-03
 -11.189  0.111E-02  0.424E-03  0.880E-04  0.987E-04  0.261E-03  0.235E-03
 -11.179  0.111E-02  0.420E-03  0.887E-04  0.101E-03  0.266E-03  0.236E-03
 -11.169  0.112E-02  0.417E-03  0.894E-04  0.103E-03  0.272E-03  0.238E-03
 -11.159  0.113E-02  0.413E-03  0.900E-04  0.105E-03  0.278E-03  0.240E-03
 -11.149  0.113E-02  0.409E-03  0.908E-04  0.108E-03  0.284E-03  0.242E-03
 -11.139  0.113E-02  0.400E-03  0.904E-04  0.109E-03  0.287E-03  0.241E-03
 -11.129  0.109E-02  0.386E-03  0.892E-04  0.104E-03  0.273E-03  0.237E-03
 -11.119  0.108E-02  0.383E-03  0.908E-04  0.101E-03  0.265E-03  0.241E-03
 -11.109  0.108E-02  0.382E-03  0.935E-04  0.984E-04  0.259E-03  0.247E-03
 -11.099  0.110E-02  0.385E-03  0.964E-04  0.100E-03  0.263E-03  0.254E-03
 -11.089  0.110E-02  0.381E-03  0.975E-04  0.100E-03  0.264E-03  0.257E-03
 -11.079  0.110E-02  0.378E-03  0.987E-04  0.101E-03  0.264E-03  0.260E-03
 -11.069  0.110E-02  0.376E-03  0.999E-04  0.101E-03  0.264E-03  0.263E-03
 -11.059  0.110E-02  0.373E-03  0.101E-03  0.100E-03  0.264E-03  0.266E-03
 -11.049  0.111E-02  0.371E-03  0.102E-03  0.999E-04  0.262E-03  0.269E-03
 -11.039  0.111E-02  0.370E-03  0.104E-03  0.993E-04  0.261E-03  0.272E-03
 -11.029  0.111E-02  0.369E-03  0.105E-03  0.985E-04  0.259E-03  0.276E-03
 -11.019  0.137E-02  0.440E-03  0.126E-03  0.129E-03  0.337E-03  0.333E-03
 -11.009  0.204E-02  0.654E-03  0.200E-03  0.183E-03  0.480E-03  0.523E-03
 -10.999  0.195E-02  0.603E-03  0.189E-03  0.183E-03  0.479E-03  0.494E-03
 -10.989  0.186E-02  0.555E-03  0.178E-03  0.182E-03  0.475E-03  0.466E-03
 -10.979  0.176E-02  0.511E-03  0.167E-03  0.179E-03  0.468E-03  0.438E-03
 -10.969  0.167E-02  0.470E-03  0.157E-03  0.174E-03  0.456E-03  0.411E-03
 -10.959  0.157E-02  0.433E-03  0.147E-03  0.168E-03  0.440E-03  0.384E-03
 -10.949  0.147E-02  0.399E-03  0.137E-03  0.161E-03  0.420E-03  0.358E-03
 -10.939  0.138E-02  0.368E-03  0.127E-03  0.152E-03  0.397E-03  0.333E-03
 -10.929  0.128E-02  0.341E-03  0.117E-03  0.141E-03  0.369E-03  0.309E-03
 -10.919  0.118E-02  0.317E-03  0.108E-03  0.129E-03  0.338E-03  0.285E-03
 -10.909  0.108E-02  0.297E-03  0.991E-04  0.116E-03  0.303E-03  0.261E-03
 -10.899  0.973E-03  0.280E-03  0.904E-04  0.101E-03  0.264E-03  0.238E-03
 -10.889  0.870E-03  0.266E-03  0.819E-04  0.842E-04  0.221E-03  0.217E-03
 -10.879  0.798E-03  0.256E-03  0.760E-04  0.729E-04  0.191E-03  0.201E-03
 -10.869  0.777E-03  0.247E-03  0.738E-04  0.719E-04  0.189E-03  0.195E-03
 -10.859  0.780E-03  0.252E-03  0.737E-04  0.717E-04  0.188E-03  0.195E-03
 -10.849  0.795E-03  0.261E-03  0.746E-04  0.722E-04  0.189E-03  0.198E-03
 -10.839  0.822E-03  0.272E-03  0.774E-04  0.735E-04  0.193E-03  0.206E-03
 -10.829  0.219E-02  0.639E-03  0.213E-03  0.212E-03  0.560E-03  0.568E-03
 -10.819  0.181E-02  0.560E-03  0.173E-03  0.170E-03  0.447E-03  0.461E-03
 -10.809  0.147E-02  0.479E-03  0.139E-03  0.133E-03  0.349E-03  0.370E-03
 -10.799  0.117E-02  0.397E-03  0.110E-03  0.102E-03  0.266E-03  0.293E-03
 -10.789  0.905E-03  0.312E-03  0.874E-04  0.754E-04  0.198E-03  0.232E-03
 -10.779  0.733E-03  0.246E-03  0.743E-04  0.593E-04  0.156E-03  0.197E-03
 -10.769  0.898E-03  0.278E-03  0.929E-04  0.774E-04  0.204E-03  0.245E-03
 -10.759  0.110E-02  0.315E-03  0.115E-03  0.100E-03  0.266E-03  0.303E-03
 -10.749  0.129E-02  0.350E-03  0.135E-03  0.124E-03  0.328E-03  0.358E-03
 -10.739  0.149E-02  0.385E-03  0.155E-03  0.147E-03  0.391E-03  0.409E-03
 -10.729  0.167E-02  0.418E-03  0.173E-03  0.172E-03  0.454E-03  0.457E-03
 -10.719  0.186E-02  0.450E-03  0.190E-03  0.196E-03  0.519E-03  0.501E-03
 -10.709  0.203E-02  0.481E-03  0.205E-03  0.221E-03  0.585E-03  0.542E-03
 -10.699  0.221E-02  0.510E-03  0.220E-03  0.246E-03  0.651E-03  0.580E-03
 -10.689  0.238E-02  0.538E-03  0.233E-03  0.271E-03  0.718E-03  0.614E-03
 -10.679  0.254E-02  0.566E-03  0.245E-03  0.297E-03  0.787E-03  0.645E-03
 -10.669  0.134E-02  0.297E-03  0.145E-03  0.142E-03  0.377E-03  0.383E-03
 -10.659  0.136E-02  0.297E-03  0.146E-03  0.144E-03  0.383E-03  0.386E-03
 -10.649  0.137E-02  0.296E-03  0.148E-03  0.146E-03  0.388E-03  0.390E-03
 -10.639  0.138E-02  0.295E-03  0.149E-03  0.148E-03  0.394E-03  0.394E-03
 -10.629  0.139E-02  0.294E-03  0.150E-03  0.150E-03  0.400E-03  0.397E-03
 -10.619  0.140E-02  0.292E-03  0.151E-03  0.153E-03  0.406E-03  0.401E-03
 -10.609  0.141E-02  0.291E-03  0.153E-03  0.155E-03  0.412E-03  0.404E-03
 -10.599  0.143E-02  0.289E-03  0.154E-03  0.157E-03  0.418E-03  0.407E-03
 -10.589  0.144E-02  0.286E-03  0.155E-03  0.159E-03  0.425E-03  0.411E-03
 -10.579  0.145E-02  0.284E-03  0.156E-03  0.162E-03  0.431E-03  0.414E-03
 -10.569  0.146E-02  0.281E-03  0.157E-03  0.164E-03  0.438E-03  0.417E-03
 -10.559  0.147E-02  0.278E-03  0.158E-03  0.166E-03  0.444E-03  0.420E-03
 -10.549  0.148E-02  0.275E-03  0.159E-03  0.169E-03  0.451E-03  0.423E-03
 -10.539  0.149E-02  0.271E-03  0.160E-03  0.171E-03  0.458E-03  0.426E-03
 -10.529  0.150E-02  0.267E-03  0.161E-03  0.174E-03  0.465E-03  0.429E-03
 -10.519  0.150E-02  0.263E-03  0.162E-03  0.177E-03  0.472E-03  0.432E-03
 -10.509  0.173E-02  0.295E-03  0.186E-03  0.205E-03  0.546E-03  0.496E-03
 -10.499  0.414E-02  0.589E-03  0.405E-03  0.567E-03  0.149E-02  0.109E-02
 -10.489  0.730E-02  0.120E-02  0.775E-03  0.883E-03  0.235E-02  0.208E-02
 -10.479  0.174E-02  0.292E-03  0.191E-03  0.201E-03  0.538E-03  0.513E-03
 -10.469  0.175E-02  0.291E-03  0.194E-03  0.202E-03  0.541E-03  0.520E-03
 -10.459  0.176E-02  0.289E-03  0.197E-03  0.203E-03  0.544E-03  0.528E-03
 -10.449  0.177E-02  0.288E-03  0.199E-03  0.204E-03  0.546E-03  0.535E-03
 -10.439  0.178E-02  0.286E-03  0.202E-03  0.204E-03  0.548E-03  0.543E-03
 -10.429  0.179E-02  0.284E-03  0.205E-03  0.205E-03  0.549E-03  0.551E-03
 -10.419  0.180E-02  0.282E-03  0.208E-03  0.205E-03  0.550E-03  0.559E-03
 -10.409  0.183E-02  0.282E-03  0.213E-03  0.207E-03  0.555E-03  0.573E-03
 -10.399  0.186E-02  0.283E-03  0.218E-03  0.209E-03  0.561E-03  0.586E-03
 -10.389  0.188E-02  0.283E-03  0.222E-03  0.212E-03  0.568E-03  0.598E-03
 -10.379  0.191E-02  0.282E-03  0.226E-03  0.214E-03  0.576E-03  0.610E-03
 -10.369  0.194E-02  0.282E-03  0.230E-03  0.218E-03  0.585E-03  0.620E-03
 -10.359  0.196E-02  0.282E-03  0.234E-03  0.221E-03  0.595E-03  0.630E-03
 -10.349  0.199E-02  0.281E-03  0.237E-03  0.225E-03  0.606E-03  0.640E-03
 -10.339  0.202E-02  0.280E-03  0.240E-03  0.230E-03  0.618E-03  0.648E-03
 -10.329  0.204E-02  0.279E-03  0.243E-03  0.234E-03  0.631E-03  0.656E-03
 -10.319  0.206E-02  0.277E-03  0.244E-03  0.237E-03  0.640E-03  0.660E-03
 -10.309  0.207E-02  0.275E-03  0.246E-03  0.240E-03  0.648E-03  0.664E-03
 -10.299  0.213E-02  0.280E-03  0.252E-03  0.246E-03  0.666E-03  0.682E-03
 -10.289  0.218E-02  0.285E-03  0.259E-03  0.253E-03  0.685E-03  0.700E-03
 -10.279  0.224E-02  0.289E-03  0.265E-03  0.261E-03  0.706E-03  0.718E-03
 -10.269  0.229E-02  0.293E-03  0.271E-03  0.268E-03  0.727E-03  0.734E-03
 -10.259  0.235E-02  0.297E-03  0.276E-03  0.276E-03  0.748E-03  0.749E-03
 -10.249  0.240E-02  0.300E-03  0.282E-03  0.284E-03  0.771E-03  0.764E-03
 -10.239  0.245E-02  0.302E-03  0.286E-03  0.292E-03  0.794E-03  0.778E-03
 -10.229  0.250E-02  0.303E-03  0.291E-03  0.301E-03  0.818E-03  0.791E-03
 -10.219  0.255E-02  0.304E-03  0.295E-03  0.310E-03  0.843E-03  0.802E-03
 -10.209  0.260E-02  0.305E-03  0.298E-03  0.319E-03  0.869E-03  0.813E-03
 -10.199  0.265E-02  0.305E-03  0.302E-03  0.328E-03  0.895E-03  0.824E-03
 -10.189  0.271E-02  0.305E-03  0.305E-03  0.338E-03  0.924E-03  0.835E-03
 -10.179  0.292E-02  0.327E-03  0.326E-03  0.367E-03  0.100E-02  0.894E-03
 -10.169  0.313E-02  0.353E-03  0.345E-03  0.397E-03  0.109E-02  0.947E-03
 -10.159  0.334E-02  0.383E-03  0.362E-03  0.427E-03  0.117E-02  0.994E-03
 -10.149  0.355E-02  0.416E-03  0.376E-03  0.459E-03  0.126E-02  0.104E-02
 -10.139  0.481E-02  0.434E-03  0.451E-03  0.715E-03  0.197E-02  0.124E-02
 -10.129  0.237E-02  0.368E-03  0.241E-03  0.287E-03  0.802E-03  0.669E-03
 -10.119  0.257E-02  0.414E-03  0.250E-03  0.318E-03  0.890E-03  0.696E-03
 -10.109  0.308E-02  0.477E-03  0.312E-03  0.371E-03  0.104E-02  0.875E-03
 -10.099  0.380E-02  0.512E-03  0.426E-03  0.434E-03  0.122E-02  0.120E-02
 -10.089  0.451E-02  0.502E-03  0.552E-03  0.495E-03  0.139E-02  0.157E-02
 -10.079  0.264E-02  0.283E-03  0.351E-03  0.263E-03  0.743E-03  0.998E-03
 -10.069  0.292E-02  0.318E-03  0.382E-03  0.297E-03  0.837E-03  0.108E-02
 -10.059  0.319E-02  0.357E-03  0.405E-03  0.334E-03  0.943E-03  0.115E-02
 -10.049  0.402E-02  0.464E-03  0.500E-03  0.432E-03  0.122E-02  0.141E-02
 -10.039  0.380E-02  0.415E-03  0.476E-03  0.409E-03  0.116E-02  0.134E-02
 -10.029  0.363E-02  0.377E-03  0.458E-03  0.391E-03  0.111E-02  0.130E-02
 -10.019  0.346E-02  0.344E-03  0.441E-03  0.373E-03  0.106E-02  0.125E-02
 -10.009  0.329E-02  0.313E-03  0.421E-03  0.355E-03  0.101E-02  0.119E-02
  -9.999  0.311E-02  0.285E-03  0.400E-03  0.336E-03  0.955E-03  0.114E-02
  -9.989  0.292E-02  0.259E-03  0.377E-03  0.316E-03  0.898E-03  0.107E-02
  -9.979  0.272E-02  0.236E-03  0.351E-03  0.295E-03  0.839E-03  0.999E-03
  -9.969  0.251E-02  0.215E-03  0.324E-03  0.273E-03  0.777E-03  0.923E-03
  -9.959  0.229E-02  0.197E-03  0.295E-03  0.250E-03  0.711E-03  0.841E-03
  -9.949  0.207E-02  0.182E-03  0.264E-03  0.226E-03  0.643E-03  0.752E-03
  -9.939  0.185E-02  0.172E-03  0.233E-03  0.204E-03  0.581E-03  0.663E-03
  -9.929  0.168E-02  0.168E-03  0.202E-03  0.190E-03  0.542E-03  0.574E-03
  -9.919  0.171E-02  0.185E-03  0.199E-03  0.197E-03  0.562E-03  0.565E-03
  -9.909  0.198E-02  0.242E-03  0.221E-03  0.232E-03  0.660E-03  0.630E-03
  -9.899  0.229E-02  0.290E-03  0.250E-03  0.269E-03  0.768E-03  0.713E-03
  -9.889  0.264E-02  0.333E-03  0.287E-03  0.312E-03  0.891E-03  0.820E-03
  -9.879  0.323E-02  0.377E-03  0.348E-03  0.391E-03  0.112E-02  0.999E-03
  -9.869  0.392E-02  0.420E-03  0.425E-03  0.483E-03  0.138E-02  0.122E-02
  -9.859  0.460E-02  0.450E-03  0.507E-03  0.567E-03  0.162E-02  0.146E-02
  -9.849  0.526E-02  0.468E-03  0.595E-03  0.644E-03  0.184E-02  0.171E-02
  -9.839  0.434E-02  0.353E-03  0.502E-03  0.531E-03  0.152E-02  0.144E-02
  -9.829  0.467E-02  0.374E-03  0.556E-03  0.556E-03  0.158E-02  0.160E-02
  -9.819  0.494E-02  0.390E-03  0.616E-03  0.564E-03  0.161E-02  0.177E-02
  -9.809  0.517E-02  0.403E-03  0.681E-03  0.556E-03  0.158E-02  0.195E-02
  -9.799  0.536E-02  0.412E-03  0.750E-03  0.533E-03  0.151E-02  0.215E-02
  -9.789  0.458E-02  0.348E-03  0.647E-03  0.453E-03  0.128E-02  0.185E-02
  -9.779  0.430E-03  0.323E-04  0.524E-04  0.514E-04  0.145E-03  0.149E-03
  -9.769  0.546E-04  0.374E-05  0.654E-05  0.651E-05  0.188E-04  0.190E-04
  -9.759  0.103E-03  0.657E-05  0.124E-04  0.123E-04  0.356E-04  0.361E-04
  -9.749  0.157E-03  0.977E-05  0.189E-04  0.188E-04  0.546E-04  0.554E-04
  -9.739  0.291E-03  0.210E-04  0.354E-04  0.343E-04  0.983E-04  0.102E-03
  -9.729  0.446E-03  0.295E-04  0.539E-04  0.529E-04  0.153E-03  0.157E-03
  -9.719  0.631E-03  0.399E-04  0.762E-04  0.753E-04  0.218E-03  0.222E-03
  -9.709  0.842E-03  0.516E-04  0.102E-03  0.101E-03  0.292E-03  0.297E-03
  -9.699  0.102E-02  0.611E-04  0.123E-03  0.122E-03  0.354E-03  0.359E-03
  -9.689  0.114E-02  0.678E-04  0.138E-03  0.137E-03  0.398E-03  0.403E-03
  -9.679  0.122E-02  0.716E-04  0.146E-03  0.146E-03  0.425E-03  0.428E-03
  -9.669  0.124E-02  0.724E-04  0.148E-03  0.149E-03  0.434E-03  0.434E-03
  -9.659  0.120E-02  0.702E-04  0.144E-03  0.146E-03  0.424E-03  0.421E-03
  -9.649  0.112E-02  0.650E-04  0.133E-03  0.137E-03  0.397E-03  0.388E-03
  -9.639  0.981E-03  0.569E-04  0.115E-03  0.121E-03  0.351E-03  0.337E-03
  -9.629  0.790E-03  0.458E-04  0.910E-04  0.993E-04  0.288E-03  0.266E-03
  -9.619  0.547E-03  0.317E-04  0.605E-04  0.715E-04  0.207E-03  0.176E-03
  -9.609  0.250E-03  0.146E-04  0.235E-04  0.375E-04  0.107E-03  0.676E-04
  -9.599  0.156E-03  0.894E-05  0.107E-04  0.279E-04  0.790E-04  0.298E-04
  -9.589  0.184E-03  0.102E-04  0.124E-04  0.330E-04  0.935E-04  0.347E-04
  -9.579  0.214E-03  0.116E-04  0.143E-04  0.385E-04  0.109E-03  0.400E-04
  -9.569  0.246E-03  0.131E-04  0.162E-04  0.444E-04  0.126E-03  0.456E-04
  -9.559  0.290E-03  0.153E-04  0.200E-04  0.516E-04  0.147E-03  0.563E-04
  -9.549  0.354E-03  0.182E-04  0.269E-04  0.604E-04  0.172E-03  0.763E-04
  -9.539  0.437E-03  0.219E-04  0.370E-04  0.707E-04  0.201E-03  0.106E-03
  -9.529  0.539E-03  0.262E-04  0.502E-04  0.826E-04  0.236E-03  0.144E-03
  -9.519  0.658E-03  0.304E-04  0.663E-04  0.954E-04  0.274E-03  0.192E-03
  -9.509  0.798E-03  0.363E-04  0.859E-04  0.110E-03  0.317E-03  0.249E-03
  -9.499  0.958E-03  0.430E-04  0.109E-03  0.127E-03  0.365E-03  0.315E-03
  -9.489  0.114E-02  0.498E-04  0.134E-03  0.145E-03  0.417E-03  0.390E-03
  -9.479  0.133E-02  0.578E-04  0.164E-03  0.164E-03  0.473E-03  0.476E-03
  -9.469  0.155E-02  0.666E-04  0.196E-03  0.186E-03  0.535E-03  0.570E-03
  -9.459  0.179E-02  0.761E-04  0.232E-03  0.208E-03  0.601E-03  0.674E-03
  -9.449  0.205E-02  0.865E-04  0.270E-03  0.233E-03  0.672E-03  0.788E-03
  -9.439  0.178E-02  0.752E-04  0.278E-03  0.157E-03  0.455E-03  0.811E-03
  -9.429  0.120E-02  0.499E-04  0.174E-03  0.122E-03  0.351E-03  0.507E-03
  -9.419  0.110E-02  0.439E-04  0.156E-03  0.115E-03  0.332E-03  0.454E-03
  -9.409  0.101E-02  0.385E-04  0.140E-03  0.109E-03  0.314E-03  0.407E-03
  -9.399  0.926E-03  0.336E-04  0.126E-03  0.104E-03  0.298E-03  0.365E-03
  -9.389  0.855E-03  0.293E-04  0.114E-03  0.987E-04  0.284E-03  0.330E-03
  -9.379  0.793E-03  0.255E-04  0.103E-03  0.944E-04  0.271E-03  0.299E-03
  -9.369  0.743E-03  0.223E-04  0.950E-04  0.906E-04  0.260E-03  0.275E-03
  -9.359  0.702E-03  0.197E-04  0.886E-04  0.874E-04  0.250E-03  0.256E-03
  -9.349  0.672E-03  0.175E-04  0.842E-04  0.848E-04  0.243E-03  0.243E-03
  -9.339  0.653E-03  0.160E-04  0.817E-04  0.827E-04  0.237E-03  0.236E-03
  -9.329  0.637E-03  0.149E-04  0.798E-04  0.809E-04  0.231E-03  0.230E-03
  -9.319  0.620E-03  0.139E-04  0.779E-04  0.789E-04  0.225E-03  0.224E-03
  -9.309  0.601E-03  0.129E-04  0.757E-04  0.768E-04  0.218E-03  0.218E-03
  -9.299  0.582E-03  0.120E-04  0.735E-04  0.745E-04  0.211E-03  0.211E-03
  -9.289  0.616E-03  0.159E-04  0.811E-04  0.841E-04  0.219E-03  0.216E-03
  -9.279  0.573E-03  0.126E-04  0.747E-04  0.768E-04  0.205E-03  0.204E-03
  -9.269  0.531E-03  0.110E-04  0.682E-04  0.697E-04  0.191E-03  0.191E-03
  -9.259  0.497E-03  0.120E-04  0.624E-04  0.636E-04  0.179E-03  0.179E-03
  -9.249  0.468E-03  0.100E-04  0.590E-04  0.599E-04  0.170E-03  0.170E-03
  -9.239  0.436E-03  0.735E-05  0.552E-04  0.559E-04  0.159E-03  0.159E-03
  -9.229  0.405E-03  0.543E-05  0.515E-04  0.520E-04  0.147E-03  0.148E-03
  -9.219  0.376E-03  0.483E-05  0.479E-04  0.483E-04  0.137E-03  0.138E-03
  -9.209  0.346E-03  0.428E-05  0.442E-04  0.445E-04  0.126E-03  0.127E-03
  -9.199  0.314E-03  0.379E-05  0.404E-04  0.405E-04  0.114E-03  0.116E-03
  -9.189  0.282E-03  0.340E-05  0.365E-04  0.365E-04  0.102E-03  0.104E-03
  -9.179  0.250E-03  0.314E-05  0.325E-04  0.325E-04  0.901E-04  0.921E-04
  -9.169  0.217E-03  0.300E-05  0.285E-04  0.284E-04  0.776E-04  0.798E-04
  -9.159  0.183E-03  0.297E-05  0.242E-04  0.241E-04  0.647E-04  0.671E-04
  -9.149  0.148E-03  0.304E-05  0.198E-04  0.197E-04  0.514E-04  0.539E-04
  -9.139  0.112E-03  0.323E-05  0.153E-04  0.151E-04  0.378E-04  0.404E-04
  -9.129  0.746E-04  0.353E-05  0.106E-04  0.104E-04  0.237E-04  0.264E-04
  -9.119  0.424E-04  0.356E-05  0.593E-05  0.686E-05  0.133E-04  0.128E-04
  -9.109  0.408E-04  0.356E-05  0.541E-05  0.704E-05  0.136E-04  0.112E-04
  -9.099  0.428E-04  0.354E-05  0.558E-05  0.744E-05  0.147E-04  0.116E-04
  -9.089  0.448E-04  0.352E-05  0.577E-05  0.785E-05  0.157E-04  0.120E-04
  -9.079  0.470E-04  0.349E-05  0.598E-05  0.825E-05  0.167E-04  0.125E-04
  -9.069  0.492E-04  0.345E-05  0.622E-05  0.866E-05  0.177E-04  0.131E-04
  -9.059  0.516E-04  0.341E-05  0.648E-05  0.907E-05  0.188E-04  0.138E-04
  -9.049  0.198E-03  0.146E-04  0.176E-04  0.416E-04  0.869E-04  0.373E-04
  -9.039  0.239E-03  0.169E-03  0.961E-05  0.124E-04  0.264E-04  0.213E-04
  -9.029  0.345E-04  0.207E-05  0.373E-05  0.646E-05  0.141E-04  0.814E-05
  -9.019  0.378E-04  0.212E-05  0.418E-05  0.698E-05  0.153E-04  0.923E-05
  -9.009  0.413E-04  0.216E-05  0.466E-05  0.752E-05  0.166E-04  0.104E-04
  -8.999  0.450E-04  0.221E-05  0.516E-05  0.807E-05  0.179E-04  0.116E-04
  -8.989  0.488E-04  0.226E-05  0.568E-05  0.864E-05  0.193E-04  0.129E-04
  -8.979  0.527E-04  0.231E-05  0.624E-05  0.922E-05  0.207E-04  0.142E-04
  -8.969  0.567E-04  0.236E-05  0.682E-05  0.982E-05  0.221E-04  0.157E-04
  -8.959  0.609E-04  0.242E-05  0.742E-05  0.104E-04  0.235E-04  0.171E-04
  -8.949  0.653E-04  0.247E-05  0.806E-05  0.111E-04  0.250E-04  0.187E-04
  -8.939  0.697E-04  0.253E-05  0.872E-05  0.117E-04  0.265E-04  0.203E-04
  -8.929  0.873E-04  0.428E-05  0.112E-04  0.148E-04  0.318E-04  0.251E-04
  -8.919  0.934E-04  0.412E-05  0.121E-04  0.158E-04  0.340E-04  0.273E-04
  -8.909  0.991E-04  0.398E-05  0.130E-04  0.167E-04  0.360E-04  0.295E-04
  -8.899  0.105E-03  0.384E-05  0.138E-04  0.175E-04  0.379E-04  0.315E-04
  -8.889  0.110E-03  0.371E-05  0.146E-04  0.183E-04  0.396E-04  0.334E-04
  -8.879  0.114E-03  0.358E-05  0.153E-04  0.189E-04  0.412E-04  0.352E-04
  -8.869  0.118E-03  0.346E-05  0.160E-04  0.195E-04  0.426E-04  0.369E-04
  -8.859  0.122E-03  0.334E-05  0.166E-04  0.201E-04  0.439E-04  0.385E-04
  -8.849  0.229E-03  0.697E-05  0.340E-04  0.320E-04  0.728E-04  0.837E-04
  -8.839  0.221E-03  0.681E-05  0.326E-04  0.310E-04  0.702E-04  0.800E-04
  -8.829  0.211E-03  0.661E-05  0.311E-04  0.299E-04  0.676E-04  0.762E-04
  -8.819  0.202E-03  0.638E-05  0.296E-04  0.287E-04  0.650E-04  0.724E-04
  -8.809  0.193E-03  0.610E-05  0.282E-04  0.276E-04  0.623E-04  0.687E-04
  -8.799  0.183E-03  0.578E-05  0.267E-04  0.263E-04  0.595E-04  0.649E-04
  -8.789  0.173E-03  0.543E-05  0.252E-04  0.251E-04  0.566E-04  0.612E-04
  -8.779  0.164E-03  0.503E-05  0.237E-04  0.238E-04  0.537E-04  0.575E-04
  -8.769  0.154E-03  0.459E-05  0.222E-04  0.224E-04  0.507E-04  0.538E-04
  -8.759  0.143E-03  0.412E-05  0.206E-04  0.210E-04  0.476E-04  0.500E-04
  -8.749  0.133E-03  0.360E-05  0.191E-04  0.196E-04  0.444E-04  0.463E-04
  -8.739  0.123E-03  0.305E-05  0.176E-04  0.181E-04  0.412E-04  0.426E-04
  -8.729  0.112E-03  0.246E-05  0.161E-04  0.166E-04  0.381E-04  0.391E-04
  -8.719  0.102E-03  0.182E-05  0.146E-04  0.152E-04  0.350E-04  0.356E-04
  -8.709  0.921E-04  0.119E-05  0.132E-04  0.138E-04  0.318E-04  0.321E-04
  -8.699  0.140E-03  0.180E-05  0.189E-04  0.199E-04  0.501E-04  0.492E-04
  -8.689  0.404E-03  0.547E-05  0.515E-04  0.540E-04  0.149E-03  0.144E-03
  -8.679  0.894E-03  0.122E-04  0.112E-03  0.117E-03  0.332E-03  0.321E-03
  -8.669  0.161E-02  0.221E-04  0.201E-03  0.209E-03  0.599E-03  0.578E-03
  -8.659  0.255E-02  0.351E-04  0.318E-03  0.331E-03  0.952E-03  0.919E-03
  -8.649  0.367E-02  0.506E-04  0.459E-03  0.471E-03  0.136E-02  0.133E-02
  -8.639  0.198E-02  0.283E-04  0.205E-03  0.298E-03  0.859E-03  0.592E-03
  -8.629  0.157E-02  0.229E-04  0.176E-03  0.222E-03  0.638E-03  0.506E-03
  -8.619  0.127E-02  0.187E-04  0.155E-03  0.168E-03  0.479E-03  0.445E-03
  -8.609  0.108E-02  0.155E-04  0.142E-03  0.135E-03  0.380E-03  0.404E-03
  -8.599  0.997E-03  0.135E-04  0.136E-03  0.122E-03  0.341E-03  0.385E-03
  -8.589  0.101E-02  0.130E-04  0.136E-03  0.125E-03  0.349E-03  0.382E-03
  -8.579  0.102E-02  0.129E-04  0.136E-03  0.130E-03  0.361E-03  0.382E-03
  -8.569  0.104E-02  0.128E-04  0.138E-03  0.136E-03  0.373E-03  0.384E-03
  -8.559  0.106E-02  0.126E-04  0.139E-03  0.141E-03  0.386E-03  0.386E-03
  -8.549  0.109E-02  0.125E-04  0.141E-03  0.147E-03  0.400E-03  0.389E-03
  -8.539  0.112E-02  0.124E-04  0.144E-03  0.153E-03  0.414E-03  0.394E-03
  -8.529  0.115E-02  0.124E-04  0.147E-03  0.159E-03  0.428E-03  0.400E-03
  -8.519  0.118E-02  0.123E-04  0.150E-03  0.166E-03  0.443E-03  0.406E-03
  -8.509  0.121E-02  0.122E-04  0.154E-03  0.172E-03  0.459E-03  0.414E-03
  -8.499  0.125E-02  0.122E-04  0.158E-03  0.179E-03  0.475E-03  0.424E-03
  -8.489  0.129E-02  0.121E-04  0.163E-03  0.186E-03  0.492E-03  0.434E-03
  -8.479  0.138E-02  0.125E-04  0.175E-03  0.201E-03  0.529E-03  0.465E-03
  -8.469  0.152E-02  0.130E-04  0.194E-03  0.221E-03  0.580E-03  0.511E-03
  -8.459  0.165E-02  0.136E-04  0.212E-03  0.241E-03  0.630E-03  0.556E-03
  -8.449  0.178E-02  0.141E-04  0.229E-03  0.261E-03  0.678E-03  0.600E-03
  -8.439  0.191E-02  0.146E-04  0.247E-03  0.280E-03  0.724E-03  0.643E-03
  -8.429  0.203E-02  0.150E-04  0.264E-03  0.298E-03  0.768E-03  0.685E-03
  -8.419  0.215E-02  0.155E-04  0.282E-03  0.316E-03  0.810E-03  0.726E-03
  -8.409  0.226E-02  0.158E-04  0.299E-03  0.334E-03  0.850E-03  0.766E-03
  -8.399  0.238E-02  0.162E-04  0.315E-03  0.351E-03  0.889E-03  0.804E-03
  -8.389  0.248E-02  0.165E-04  0.332E-03  0.368E-03  0.926E-03  0.842E-03
  -8.379  0.254E-02  0.145E-04  0.340E-03  0.373E-03  0.943E-03  0.865E-03
  -8.369  0.260E-02  0.144E-04  0.353E-03  0.382E-03  0.960E-03  0.893E-03
  -8.359  0.268E-02  0.153E-04  0.369E-03  0.388E-03  0.969E-03  0.936E-03
  -8.349  0.259E-02  0.130E-04  0.359E-03  0.364E-03  0.923E-03  0.927E-03
  -8.339  0.272E-02  0.125E-04  0.387E-03  0.375E-03  0.947E-03  0.995E-03
  -8.329  0.277E-02  0.119E-04  0.407E-03  0.375E-03  0.936E-03  0.104E-02
  -8.319  0.274E-02  0.110E-04  0.418E-03  0.362E-03  0.889E-03  0.106E-02
  -8.309  0.263E-02  0.993E-05  0.422E-03  0.336E-03  0.806E-03  0.105E-02
  -8.299  0.246E-02  0.872E-05  0.406E-03  0.316E-03  0.733E-03  0.992E-03
  -8.289  0.394E-02  0.127E-04  0.590E-03  0.527E-03  0.131E-02  0.150E-02
  -8.279  0.673E-02  0.190E-04  0.979E-03  0.963E-03  0.234E-02  0.242E-02
  -8.269  0.255E-02  0.817E-05  0.390E-03  0.379E-03  0.859E-03  0.918E-03
  -8.259  0.248E-02  0.793E-05  0.373E-03  0.385E-03  0.853E-03  0.858E-03
  -8.249  0.243E-02  0.766E-05  0.364E-03  0.391E-03  0.853E-03  0.819E-03
  -8.239  0.240E-02  0.735E-05  0.357E-03  0.395E-03  0.850E-03  0.791E-03
  -8.229  0.238E-02  0.702E-05  0.354E-03  0.396E-03  0.846E-03  0.776E-03
  -8.219  0.237E-02  0.665E-05  0.354E-03  0.395E-03  0.841E-03  0.772E-03
  -8.209  0.259E-02  0.652E-05  0.396E-03  0.434E-03  0.906E-03  0.845E-03
  -8.199  0.283E-02  0.627E-05  0.443E-03  0.475E-03  0.976E-03  0.925E-03
  -8.189  0.308E-02  0.589E-05  0.494E-03  0.517E-03  0.105E-02  0.101E-02
  -8.179  0.335E-02  0.537E-05  0.548E-03  0.561E-03  0.112E-02  0.111E-02
  -8.169  0.246E-02  0.404E-05  0.397E-03  0.403E-03  0.829E-03  0.825E-03
  -8.159  0.254E-02  0.401E-05  0.411E-03  0.418E-03  0.859E-03  0.852E-03
  -8.149  0.263E-02  0.398E-05  0.424E-03  0.432E-03  0.888E-03  0.878E-03
  -8.139  0.270E-02  0.396E-05  0.436E-03  0.444E-03  0.915E-03  0.902E-03
  -8.129  0.277E-02  0.395E-05  0.446E-03  0.454E-03  0.940E-03  0.925E-03
  -8.119  0.283E-02  0.394E-05  0.456E-03  0.464E-03  0.963E-03  0.947E-03
  -8.109  0.289E-02  0.393E-05  0.464E-03  0.471E-03  0.985E-03  0.968E-03
  -8.099  0.294E-02  0.394E-05  0.471E-03  0.478E-03  0.101E-02  0.987E-03
  -8.089  0.299E-02  0.394E-05  0.477E-03  0.482E-03  0.102E-02  0.101E-02
  -8.079  0.315E-02  0.408E-05  0.495E-03  0.511E-03  0.109E-02  0.105E-02
  -8.069  0.328E-02  0.422E-05  0.506E-03  0.537E-03  0.116E-02  0.108E-02
  -8.059  0.337E-02  0.434E-05  0.510E-03  0.557E-03  0.121E-02  0.109E-02
  -8.049  0.341E-02  0.443E-05  0.504E-03  0.569E-03  0.124E-02  0.109E-02
  -8.039  0.340E-02  0.449E-05  0.489E-03  0.574E-03  0.127E-02  0.106E-02
  -8.029  0.335E-02  0.454E-05  0.467E-03  0.573E-03  0.128E-02  0.102E-02
  -8.019  0.325E-02  0.457E-05  0.437E-03  0.565E-03  0.127E-02  0.967E-03
  -8.009  0.311E-02  0.448E-05  0.399E-03  0.552E-03  0.126E-02  0.892E-03
  -7.999  0.288E-02  0.384E-05  0.353E-03  0.523E-03  0.120E-02  0.797E-03
  -7.989  0.257E-02  0.328E-05  0.304E-03  0.475E-03  0.110E-02  0.689E-03
  -7.979  0.595E-02  0.537E-05  0.992E-03  0.859E-03  0.190E-02  0.220E-02
  -7.969  0.623E-02  0.396E-05  0.113E-02  0.788E-03  0.175E-02  0.256E-02
  -7.959  0.548E-02  0.288E-05  0.105E-02  0.640E-03  0.141E-02  0.238E-02
  -7.949  0.385E-02  0.212E-05  0.753E-03  0.445E-03  0.965E-03  0.169E-02
  -7.939  0.149E-02  0.166E-05  0.252E-03  0.234E-03  0.480E-03  0.522E-03
  -7.929  0.138E-02  0.147E-05  0.230E-03  0.224E-03  0.459E-03  0.468E-03
  -7.919  0.137E-02  0.129E-05  0.229E-03  0.221E-03  0.453E-03  0.464E-03
  -7.909  0.134E-02  0.112E-05  0.225E-03  0.217E-03  0.444E-03  0.457E-03
  -7.899  0.131E-02  0.961E-06  0.220E-03  0.211E-03  0.432E-03  0.445E-03
  -7.889  0.127E-02  0.809E-06  0.213E-03  0.204E-03  0.417E-03  0.431E-03
  -7.879  0.121E-02  0.678E-06  0.204E-03  0.195E-03  0.399E-03  0.412E-03
  -7.869  0.115E-02  0.631E-06  0.193E-03  0.185E-03  0.377E-03  0.390E-03
  -7.859  0.486E-02  0.671E-06  0.693E-03  0.679E-03  0.173E-02  0.176E-02
  -7.849  0.435E-02  0.707E-06  0.619E-03  0.609E-03  0.155E-02  0.157E-02
  -7.839  0.385E-02  0.752E-06  0.548E-03  0.541E-03  0.137E-02  0.139E-02
  -7.829  0.339E-02  0.807E-06  0.480E-03  0.477E-03  0.121E-02  0.122E-02
  -7.819  0.294E-02  0.871E-06  0.414E-03  0.417E-03  0.106E-02  0.106E-02
  -7.809  0.259E-02  0.960E-06  0.362E-03  0.370E-03  0.933E-03  0.923E-03
  -7.799  0.235E-02  0.106E-05  0.329E-03  0.340E-03  0.849E-03  0.832E-03
  -7.789  0.215E-02  0.117E-05  0.301E-03  0.315E-03  0.779E-03  0.754E-03
  -7.779  0.198E-02  0.127E-05  0.277E-03  0.295E-03  0.722E-03  0.688E-03
  -7.769  0.186E-02  0.138E-05  0.259E-03  0.280E-03  0.679E-03  0.636E-03
  -7.759  0.176E-02  0.149E-05  0.245E-03  0.271E-03  0.649E-03  0.597E-03
  -7.749  0.171E-02  0.161E-05  0.236E-03  0.266E-03  0.633E-03  0.571E-03
  -7.739  0.169E-02  0.173E-05  0.232E-03  0.267E-03  0.631E-03  0.557E-03
  -7.729  0.168E-02  0.186E-05  0.229E-03  0.269E-03  0.632E-03  0.545E-03
  -7.719  0.167E-02  0.200E-05  0.225E-03  0.271E-03  0.634E-03  0.534E-03
  -7.709  0.166E-02  0.215E-05  0.222E-03  0.274E-03  0.636E-03  0.522E-03
  -7.699  0.165E-02  0.229E-05  0.218E-03  0.277E-03  0.640E-03  0.510E-03
  -7.689  0.164E-02  0.244E-05  0.215E-03  0.280E-03  0.644E-03  0.498E-03
  -7.679  0.163E-02  0.260E-05  0.212E-03  0.284E-03  0.650E-03  0.485E-03
  -7.669  0.163E-02  0.276E-05  0.208E-03  0.289E-03  0.656E-03  0.473E-03
  -7.659  0.162E-02  0.292E-05  0.205E-03  0.294E-03  0.663E-03  0.460E-03
  -7.649  0.163E-02  0.326E-05  0.204E-03  0.298E-03  0.668E-03  0.453E-03
  -7.639  0.173E-02  0.416E-05  0.226E-03  0.307E-03  0.686E-03  0.504E-03
  -7.629  0.201E-02  0.636E-05  0.289E-03  0.329E-03  0.738E-03  0.649E-03
  -7.619  0.297E-02  0.114E-04  0.493E-03  0.414E-03  0.932E-03  0.112E-02
  -7.609  0.462E-02  0.135E-04  0.847E-03  0.558E-03  0.126E-02  0.194E-02
  -7.599  0.680E-02  0.125E-04  0.132E-02  0.743E-03  0.168E-02  0.305E-02
  -7.589  0.152E-02  0.419E-05  0.234E-03  0.238E-03  0.530E-03  0.516E-03
  -7.579  0.159E-02  0.458E-05  0.240E-03  0.248E-03  0.561E-03  0.532E-03
  -7.569  0.165E-02  0.496E-05  0.247E-03  0.259E-03  0.591E-03  0.550E-03
  -7.559  0.171E-02  0.535E-05  0.254E-03  0.269E-03  0.619E-03  0.568E-03
  -7.549  0.178E-02  0.575E-05  0.261E-03  0.278E-03  0.648E-03  0.586E-03
  -7.539  0.184E-02  0.614E-05  0.268E-03  0.288E-03  0.675E-03  0.605E-03
  -7.529  0.168E-02  0.603E-05  0.239E-03  0.260E-03  0.624E-03  0.549E-03
  -7.519  0.174E-02  0.643E-05  0.246E-03  0.268E-03  0.648E-03  0.568E-03
  -7.509  0.179E-02  0.683E-05  0.253E-03  0.276E-03  0.671E-03  0.587E-03
  -7.499  0.185E-02  0.722E-05  0.260E-03  0.284E-03  0.693E-03  0.608E-03
  -7.489  0.191E-02  0.762E-05  0.268E-03  0.292E-03  0.715E-03  0.629E-03
  -7.479  0.197E-02  0.803E-05  0.276E-03  0.300E-03  0.736E-03  0.650E-03
  -7.469  0.203E-02  0.843E-05  0.284E-03  0.308E-03  0.756E-03  0.673E-03
  -7.459  0.209E-02  0.883E-05  0.292E-03  0.315E-03  0.775E-03  0.696E-03
  -7.449  0.215E-02  0.924E-05  0.301E-03  0.323E-03  0.794E-03  0.719E-03
  -7.439  0.221E-02  0.965E-05  0.310E-03  0.330E-03  0.812E-03  0.744E-03
  -7.429  0.226E-02  0.101E-04  0.319E-03  0.337E-03  0.830E-03  0.769E-03
  -7.419  0.106E-01  0.416E-04  0.149E-02  0.149E-02  0.380E-02  0.380E-02
  -7.409  0.798E-02  0.351E-04  0.115E-02  0.109E-02  0.277E-02  0.294E-02
  -7.399  0.640E-02  0.311E-04  0.945E-03  0.858E-03  0.215E-02  0.242E-02
  -7.389  0.564E-02  0.285E-04  0.846E-03  0.742E-03  0.184E-02  0.217E-02
  -7.379  0.479E-02  0.246E-04  0.728E-03  0.626E-03  0.154E-02  0.187E-02
  -7.369  0.379E-02  0.192E-04  0.580E-03  0.497E-03  0.121E-02  0.148E-02
  -7.359  0.264E-02  0.121E-04  0.403E-03  0.358E-03  0.861E-03  0.100E-02
  -7.349  0.152E-02  0.952E-05  0.227E-03  0.220E-03  0.521E-03  0.542E-03
  -7.339  0.133E-02  0.916E-05  0.198E-03  0.195E-03  0.458E-03  0.467E-03
  -7.329  0.124E-02  0.892E-05  0.184E-03  0.182E-03  0.428E-03  0.434E-03
  -7.319  0.116E-02  0.870E-05  0.173E-03  0.173E-03  0.404E-03  0.406E-03
  -7.309  0.111E-02  0.848E-05  0.165E-03  0.165E-03  0.387E-03  0.386E-03
  -7.299  0.107E-02  0.827E-05  0.158E-03  0.160E-03  0.376E-03  0.371E-03
  -7.289  0.106E-02  0.809E-05  0.155E-03  0.158E-03  0.373E-03  0.364E-03
  -7.279  0.106E-02  0.802E-05  0.154E-03  0.159E-03  0.377E-03  0.363E-03
  -7.269  0.108E-02  0.837E-05  0.156E-03  0.162E-03  0.386E-03  0.369E-03
  -7.259  0.111E-02  0.875E-05  0.159E-03  0.165E-03  0.396E-03  0.377E-03
  -7.249  0.113E-02  0.916E-05  0.162E-03  0.169E-03  0.406E-03  0.386E-03
  -7.239  0.128E-02  0.105E-04  0.182E-03  0.193E-03  0.461E-03  0.432E-03
  -7.229  0.129E-02  0.109E-04  0.182E-03  0.195E-03  0.469E-03  0.434E-03
  -7.219  0.131E-02  0.115E-04  0.182E-03  0.198E-03  0.477E-03  0.437E-03
  -7.209  0.132E-02  0.120E-04  0.183E-03  0.201E-03  0.486E-03  0.441E-03
  -7.199  0.134E-02  0.126E-04  0.185E-03  0.204E-03  0.496E-03  0.447E-03
  -7.189  0.137E-02  0.132E-04  0.187E-03  0.208E-03  0.506E-03  0.455E-03
  -7.179  0.140E-02  0.138E-04  0.191E-03  0.212E-03  0.517E-03  0.464E-03
  -7.169  0.143E-02  0.145E-04  0.195E-03  0.217E-03  0.528E-03  0.475E-03
  -7.159  0.146E-02  0.152E-04  0.200E-03  0.222E-03  0.541E-03  0.488E-03
  -7.149  0.150E-02  0.160E-04  0.205E-03  0.227E-03  0.553E-03  0.502E-03
  -7.139  0.155E-02  0.167E-04  0.212E-03  0.233E-03  0.567E-03  0.517E-03
  -7.129  0.159E-02  0.176E-04  0.219E-03  0.239E-03  0.581E-03  0.535E-03
  -7.119  0.164E-02  0.184E-04  0.227E-03  0.246E-03  0.595E-03  0.554E-03
  -7.109  0.169E-02  0.193E-04  0.235E-03  0.253E-03  0.610E-03  0.574E-03
  -7.099  0.175E-02  0.202E-04  0.245E-03  0.260E-03  0.626E-03  0.596E-03
  -7.089  0.181E-02  0.211E-04  0.255E-03  0.268E-03  0.643E-03  0.620E-03
  -7.079  0.187E-02  0.221E-04  0.266E-03  0.276E-03  0.660E-03  0.645E-03
  -7.069  0.194E-02  0.231E-04  0.277E-03  0.285E-03  0.678E-03  0.672E-03
  -7.059  0.200E-02  0.242E-04  0.290E-03  0.294E-03  0.696E-03  0.701E-03
  -7.049  0.208E-02  0.253E-04  0.303E-03  0.303E-03  0.715E-03  0.731E-03
  -7.039  0.215E-02  0.264E-04  0.317E-03  0.313E-03  0.734E-03  0.763E-03
  -7.029  0.223E-02  0.275E-04  0.332E-03  0.323E-03  0.755E-03  0.796E-03
  -7.019  0.243E-02  0.290E-04  0.356E-03  0.358E-03  0.831E-03  0.852E-03
  -7.009  0.475E-02  0.463E-04  0.614E-03  0.718E-03  0.184E-02  0.153E-02
  -6.999  0.246E-02  0.304E-04  0.406E-03  0.365E-03  0.764E-03  0.889E-03
  -6.989  0.405E-02  0.519E-04  0.706E-03  0.586E-03  0.117E-02  0.153E-02
  -6.979  0.286E-02  0.411E-04  0.479E-03  0.425E-03  0.887E-03  0.103E-02
  -6.969  0.209E-02  0.264E-04  0.338E-03  0.323E-03  0.692E-03  0.707E-03
  -6.959  0.204E-02  0.261E-04  0.333E-03  0.315E-03  0.675E-03  0.694E-03
  -6.949  0.194E-02  0.253E-04  0.317E-03  0.297E-03  0.636E-03  0.661E-03
  -6.939  0.176E-02  0.239E-04  0.290E-03  0.267E-03  0.575E-03  0.608E-03
  -6.929  0.153E-02  0.219E-04  0.252E-03  0.225E-03  0.491E-03  0.535E-03
  -6.919  0.122E-02  0.194E-04  0.203E-03  0.173E-03  0.385E-03  0.442E-03
  -6.909  0.918E-03  0.168E-04  0.149E-03  0.122E-03  0.285E-03  0.345E-03
  -6.899  0.732E-03  0.142E-04  0.105E-03  0.993E-04  0.248E-03  0.266E-03
  -6.889  0.684E-03  0.138E-04  0.936E-04  0.931E-04  0.241E-03  0.242E-03
  -6.879  0.701E-03  0.134E-04  0.959E-04  0.956E-04  0.248E-03  0.248E-03
  -6.869  0.717E-03  0.129E-04  0.981E-04  0.980E-04  0.254E-03  0.254E-03
  -6.859  0.733E-03  0.124E-04  0.100E-03  0.100E-03  0.261E-03  0.259E-03
  -6.849  0.473E-01  0.654E-03  0.652E-02  0.651E-02  0.167E-01  0.169E-01
  -6.839  0.141E-02  0.211E-04  0.193E-03  0.193E-03  0.501E-03  0.499E-03
  -6.829  0.119E-02  0.185E-04  0.163E-03  0.163E-03  0.426E-03  0.423E-03
  -6.819  0.999E-03  0.156E-04  0.136E-03  0.136E-03  0.357E-03  0.354E-03
  -6.809  0.805E-03  0.119E-04  0.110E-03  0.110E-03  0.288E-03  0.285E-03
  -6.799  0.651E-03  0.974E-05  0.885E-04  0.892E-04  0.234E-03  0.230E-03
  -6.789  0.517E-03  0.792E-05  0.700E-04  0.710E-04  0.187E-03  0.182E-03
  -6.779  0.404E-03  0.641E-05  0.544E-04  0.557E-04  0.147E-03  0.141E-03
  -6.769  0.312E-03  0.520E-05  0.416E-04  0.433E-04  0.115E-03  0.107E-03
  -6.759  0.240E-03  0.429E-05  0.316E-04  0.339E-04  0.901E-04  0.804E-04
  -6.749  0.189E-03  0.368E-05  0.245E-04  0.274E-04  0.726E-04  0.611E-04
  -6.739  0.159E-03  0.338E-05  0.202E-04  0.238E-04  0.624E-04  0.490E-04
  -6.729  0.149E-03  0.338E-05  0.188E-04  0.232E-04  0.596E-04  0.441E-04
  -6.719  0.160E-03  0.368E-05  0.203E-04  0.255E-04  0.643E-04  0.466E-04
  -6.709  0.182E-03  0.413E-05  0.232E-04  0.292E-04  0.727E-04  0.529E-04
  -6.699  0.235E-03  0.519E-05  0.300E-04  0.384E-04  0.935E-04  0.681E-04
  -6.689  0.337E-03  0.712E-05  0.426E-04  0.561E-04  0.135E-03  0.960E-04
  -6.679  0.498E-03  0.101E-04  0.624E-04  0.848E-04  0.201E-03  0.140E-03
  -6.669  0.793E-03  0.155E-04  0.991E-04  0.137E-03  0.320E-03  0.221E-03
  -6.659  0.133E-02  0.255E-04  0.171E-03  0.226E-03  0.522E-03  0.383E-03
  -6.649  0.213E-02  0.401E-04  0.284E-03  0.355E-03  0.814E-03  0.635E-03
  -6.639  0.318E-02  0.590E-04  0.434E-03  0.523E-03  0.119E-02  0.971E-03
  -6.629  0.449E-02  0.824E-04  0.622E-03  0.731E-03  0.166E-02  0.139E-02
  -6.619  0.604E-02  0.110E-03  0.848E-03  0.977E-03  0.222E-02  0.189E-02
  -6.609  0.285E-02  0.553E-04  0.460E-03  0.395E-03  0.893E-03  0.105E-02
  -6.599  0.252E-02  0.500E-04  0.399E-03  0.354E-03  0.805E-03  0.908E-03
  -6.589  0.225E-02  0.457E-04  0.349E-03  0.320E-03  0.736E-03  0.797E-03
  -6.579  0.205E-02  0.425E-04  0.312E-03  0.296E-03  0.684E-03  0.713E-03
  -6.569  0.191E-02  0.404E-04  0.285E-03  0.279E-03  0.650E-03  0.655E-03
  -6.559  0.184E-02  0.393E-04  0.271E-03  0.271E-03  0.633E-03  0.624E-03
  -6.549  0.183E-02  0.393E-04  0.268E-03  0.270E-03  0.635E-03  0.620E-03
  -6.539  0.192E-02  0.423E-04  0.281E-03  0.281E-03  0.664E-03  0.655E-03
  -6.529  0.231E-02  0.494E-04  0.345E-03  0.326E-03  0.776E-03  0.817E-03
  -6.519  0.303E-02  0.594E-04  0.468E-03  0.408E-03  0.975E-03  0.112E-02
  -6.509  0.173E-02  0.394E-04  0.248E-03  0.256E-03  0.605E-03  0.577E-03
  -6.499  0.172E-02  0.399E-04  0.248E-03  0.256E-03  0.604E-03  0.577E-03
  -6.489  0.172E-02  0.403E-04  0.247E-03  0.255E-03  0.602E-03  0.577E-03
  -6.479  0.172E-02  0.407E-04  0.247E-03  0.254E-03  0.600E-03  0.576E-03
  -6.469  0.171E-02  0.412E-04  0.246E-03  0.253E-03  0.597E-03  0.576E-03
  -6.459  0.171E-02  0.417E-04  0.245E-03  0.251E-03  0.593E-03  0.574E-03
  -6.449  0.170E-02  0.421E-04  0.244E-03  0.250E-03  0.589E-03  0.573E-03
  -6.439  0.169E-02  0.424E-04  0.243E-03  0.248E-03  0.585E-03  0.571E-03
  -6.429  0.168E-02  0.428E-04  0.242E-03  0.246E-03  0.579E-03  0.569E-03
  -6.419  0.167E-02  0.430E-04  0.241E-03  0.244E-03  0.574E-03  0.566E-03
  -6.409  0.166E-02  0.433E-04  0.240E-03  0.242E-03  0.567E-03  0.563E-03
  -6.399  0.164E-02  0.435E-04  0.239E-03  0.239E-03  0.560E-03  0.560E-03
  -6.389  0.163E-02  0.436E-04  0.237E-03  0.237E-03  0.553E-03  0.556E-03
  -6.379  0.174E-02  0.467E-04  0.257E-03  0.250E-03  0.580E-03  0.606E-03
  -6.369  0.204E-02  0.539E-04  0.308E-03  0.287E-03  0.659E-03  0.731E-03
  -6.359  0.228E-02  0.600E-04  0.348E-03  0.316E-03  0.721E-03  0.832E-03
  -6.349  0.245E-02  0.650E-04  0.378E-03  0.338E-03  0.765E-03  0.907E-03
  -6.339  0.257E-02  0.688E-04  0.397E-03  0.352E-03  0.793E-03  0.959E-03
  -6.329  0.262E-02  0.715E-04  0.406E-03  0.358E-03  0.804E-03  0.985E-03
  -6.319  0.320E-02  0.122E-03  0.481E-03  0.424E-03  0.970E-03  0.120E-02
  -6.309  0.403E-02  0.113E-03  0.625E-03  0.539E-03  0.120E-02  0.155E-02
  -6.299  0.522E-03  0.217E-04  0.766E-04  0.814E-04  0.176E-03  0.166E-03
  -6.289  0.533E-03  0.214E-04  0.781E-04  0.847E-04  0.181E-03  0.167E-03
  -6.279  0.557E-03  0.225E-04  0.816E-04  0.891E-04  0.189E-03  0.175E-03
  -6.269  0.583E-03  0.236E-04  0.853E-04  0.936E-04  0.198E-03  0.183E-03
  -6.259  0.612E-03  0.249E-04  0.894E-04  0.982E-04  0.207E-03  0.192E-03
  -6.249  0.642E-03  0.262E-04  0.937E-04  0.103E-03  0.217E-03  0.203E-03
  -6.239  0.656E-03  0.277E-04  0.961E-04  0.106E-03  0.222E-03  0.204E-03
  -6.229  0.699E-03  0.299E-04  0.103E-03  0.113E-03  0.235E-03  0.219E-03
  -6.219  0.742E-03  0.321E-04  0.111E-03  0.119E-03  0.247E-03  0.234E-03
  -6.209  0.784E-03  0.344E-04  0.118E-03  0.125E-03  0.259E-03  0.248E-03
  -6.199  0.825E-03  0.367E-04  0.125E-03  0.132E-03  0.270E-03  0.262E-03
  -6.189  0.942E-03  0.410E-04  0.144E-03  0.148E-03  0.305E-03  0.303E-03
  -6.179  0.963E-03  0.430E-04  0.148E-03  0.152E-03  0.311E-03  0.309E-03
  -6.169  0.982E-03  0.450E-04  0.151E-03  0.156E-03  0.316E-03  0.313E-03
  -6.159  0.101E-02  0.504E-04  0.155E-03  0.160E-03  0.323E-03  0.320E-03
  -6.149  0.103E-02  0.517E-04  0.159E-03  0.164E-03  0.327E-03  0.324E-03
  -6.139  0.104E-02  0.533E-04  0.162E-03  0.168E-03  0.332E-03  0.329E-03
  -6.129  0.107E-02  0.559E-04  0.165E-03  0.173E-03  0.338E-03  0.333E-03
  -6.119  0.109E-02  0.598E-04  0.169E-03  0.178E-03  0.344E-03  0.337E-03
  -6.109  0.111E-02  0.644E-04  0.173E-03  0.184E-03  0.349E-03  0.341E-03
  -6.099  0.113E-02  0.687E-04  0.177E-03  0.189E-03  0.354E-03  0.344E-03
  -6.089  0.116E-02  0.753E-04  0.181E-03  0.196E-03  0.360E-03  0.346E-03
  -6.079  0.117E-02  0.790E-04  0.184E-03  0.200E-03  0.363E-03  0.348E-03
  -6.069  0.119E-02  0.812E-04  0.186E-03  0.204E-03  0.365E-03  0.348E-03
  -6.059  0.120E-02  0.854E-04  0.190E-03  0.209E-03  0.369E-03  0.350E-03
  -6.049  0.131E-02  0.921E-04  0.206E-03  0.232E-03  0.406E-03  0.375E-03
  -6.039  0.152E-02  0.959E-04  0.237E-03  0.276E-03  0.485E-03  0.430E-03
  -6.029  0.169E-02  0.977E-04  0.266E-03  0.304E-03  0.535E-03  0.483E-03
  -6.019  0.181E-02  0.995E-04  0.290E-03  0.320E-03  0.566E-03  0.529E-03
  -6.009  0.191E-02  0.101E-03  0.313E-03  0.334E-03  0.593E-03  0.571E-03
  -5.999  0.201E-02  0.102E-03  0.333E-03  0.347E-03  0.616E-03  0.607E-03
  -5.989  0.209E-02  0.103E-03  0.351E-03  0.358E-03  0.636E-03  0.638E-03
  -5.979  0.213E-02  0.100E-03  0.363E-03  0.361E-03  0.645E-03  0.662E-03
  -5.969  0.213E-02  0.914E-04  0.367E-03  0.350E-03  0.642E-03  0.678E-03
  -5.959  0.212E-02  0.823E-04  0.370E-03  0.342E-03  0.640E-03  0.689E-03
  -5.949  0.211E-02  0.728E-04  0.371E-03  0.336E-03  0.637E-03  0.696E-03
  -5.939  0.209E-02  0.631E-04  0.370E-03  0.332E-03  0.633E-03  0.697E-03
  -5.929  0.206E-02  0.529E-04  0.366E-03  0.327E-03  0.626E-03  0.692E-03
  -5.919  0.203E-02  0.447E-04  0.362E-03  0.324E-03  0.616E-03  0.683E-03
  -5.909  0.572E-02  0.806E-04  0.988E-03  0.113E-02  0.183E-02  0.169E-02
  -5.899  0.155E-02  0.353E-04  0.283E-03  0.250E-03  0.462E-03  0.517E-03
  -5.889  0.145E-02  0.320E-04  0.267E-03  0.239E-03  0.432E-03  0.477E-03
  -5.879  0.134E-02  0.284E-04  0.250E-03  0.227E-03  0.401E-03  0.434E-03
  -5.869  0.121E-02  0.254E-04  0.227E-03  0.208E-03  0.361E-03  0.386E-03
  -5.859  0.111E-02  0.244E-04  0.209E-03  0.190E-03  0.329E-03  0.354E-03
  -5.849  0.101E-02  0.237E-04  0.192E-03  0.172E-03  0.299E-03  0.325E-03
  -5.839  0.917E-03  0.229E-04  0.175E-03  0.154E-03  0.269E-03  0.296E-03
  -5.829  0.824E-03  0.220E-04  0.158E-03  0.136E-03  0.239E-03  0.268E-03
  -5.819  0.733E-03  0.212E-04  0.142E-03  0.119E-03  0.210E-03  0.240E-03
  -5.809  0.649E-03  0.206E-04  0.126E-03  0.104E-03  0.184E-03  0.215E-03
  -5.799  0.568E-03  0.197E-04  0.111E-03  0.888E-04  0.159E-03  0.190E-03
  -5.789  0.491E-03  0.187E-04  0.955E-04  0.749E-04  0.135E-03  0.167E-03
  -5.779  0.417E-03  0.174E-04  0.810E-04  0.619E-04  0.113E-03  0.144E-03
  -5.769  0.348E-03  0.160E-04  0.668E-04  0.498E-04  0.924E-04  0.123E-03
  -5.759  0.281E-03  0.144E-04  0.531E-04  0.386E-04  0.734E-04  0.102E-03
  -5.749  0.219E-03  0.126E-04  0.397E-04  0.284E-04  0.559E-04  0.820E-04
  -5.739  0.160E-03  0.106E-04  0.268E-04  0.191E-04  0.399E-04  0.632E-04
  -5.729  0.141E-03  0.958E-05  0.226E-04  0.148E-04  0.342E-04  0.593E-04
  -5.719  0.121E-03  0.869E-05  0.191E-04  0.115E-04  0.289E-04  0.531E-04
  -5.709  0.101E-03  0.726E-05  0.161E-04  0.940E-05  0.234E-04  0.444E-04
  -5.699  0.791E-04  0.584E-05  0.135E-04  0.831E-05  0.181E-04  0.334E-04
  -5.689  0.766E-04  0.576E-05  0.131E-04  0.813E-05  0.175E-04  0.322E-04
  -5.679  0.737E-04  0.569E-05  0.125E-04  0.785E-05  0.168E-04  0.308E-04
  -5.669  0.702E-04  0.556E-05  0.119E-04  0.747E-05  0.161E-04  0.292E-04
  -5.659  0.664E-04  0.545E-05  0.112E-04  0.705E-05  0.153E-04  0.274E-04
  -5.649  0.625E-04  0.535E-05  0.105E-04  0.662E-05  0.144E-04  0.257E-04
  -5.639  0.590E-04  0.527E-05  0.976E-05  0.622E-05  0.137E-04  0.240E-04
  -5.629  0.557E-04  0.521E-05  0.911E-05  0.585E-05  0.130E-04  0.225E-04
  -5.619  0.526E-04  0.516E-05  0.852E-05  0.551E-05  0.124E-04  0.211E-04
  -5.609  0.499E-04  0.512E-05  0.797E-05  0.519E-05  0.118E-04  0.198E-04
  -5.599  0.473E-04  0.511E-05  0.747E-05  0.491E-05  0.113E-04  0.186E-04
  -5.589  0.451E-04  0.511E-05  0.702E-05  0.465E-05  0.108E-04  0.175E-04
  -5.579  0.431E-04  0.513E-05  0.662E-05  0.442E-05  0.104E-04  0.166E-04
  -5.569  0.398E-04  0.506E-05  0.595E-05  0.384E-05  0.981E-05  0.152E-04
  -5.559  0.391E-04  0.512E-05  0.578E-05  0.375E-05  0.969E-05  0.148E-04
  -5.549  0.385E-04  0.517E-05  0.561E-05  0.367E-05  0.957E-05  0.144E-04
  -5.539  0.378E-04  0.522E-05  0.544E-05  0.359E-05  0.946E-05  0.141E-04
  -5.529  0.371E-04  0.528E-05  0.527E-05  0.351E-05  0.934E-05  0.137E-04
  -5.519  0.364E-04  0.533E-05  0.510E-05  0.344E-05  0.923E-05  0.134E-04
  -5.509  0.358E-04  0.538E-05  0.492E-05  0.336E-05  0.911E-05  0.130E-04
  -5.499  0.351E-04  0.544E-05  0.475E-05  0.328E-05  0.900E-05  0.126E-04
  -5.489  0.345E-04  0.549E-05  0.458E-05  0.320E-05  0.889E-05  0.123E-04
  -5.479  0.338E-04  0.554E-05  0.442E-05  0.313E-05  0.879E-05  0.119E-04
  -5.469  0.332E-04  0.560E-05  0.425E-05  0.305E-05  0.868E-05  0.116E-04
  -5.459  0.325E-04  0.565E-05  0.408E-05  0.297E-05  0.858E-05  0.112E-04
  -5.449  0.319E-04  0.570E-05  0.391E-05  0.290E-05  0.847E-05  0.109E-04
  -5.439  0.312E-04  0.576E-05  0.374E-05  0.283E-05  0.837E-05  0.105E-04
  -5.429  0.306E-04  0.581E-05  0.357E-05  0.275E-05  0.827E-05  0.102E-04
  -5.419  0.299E-04  0.587E-05  0.341E-05  0.268E-05  0.818E-05  0.982E-05
  -5.409  0.293E-04  0.592E-05  0.324E-05  0.261E-05  0.808E-05  0.947E-05
  -5.399  0.780E-04  0.149E-04  0.813E-05  0.765E-05  0.255E-04  0.219E-04
  -5.389  0.376E-04  0.744E-05  0.380E-05  0.339E-05  0.115E-04  0.115E-04
  -5.379  0.218E-04  0.427E-05  0.249E-05  0.215E-05  0.549E-05  0.738E-05
  -5.369  0.264E-04  0.522E-05  0.288E-05  0.251E-05  0.680E-05  0.901E-05
  -5.359  0.468E-04  0.880E-05  0.456E-05  0.413E-05  0.133E-04  0.160E-04
  -5.349  0.818E-04  0.144E-04  0.742E-05  0.707E-05  0.251E-04  0.278E-04
  -5.339  0.132E-03  0.220E-04  0.115E-04  0.113E-04  0.423E-04  0.444E-04
  -5.329  0.196E-03  0.317E-04  0.167E-04  0.169E-04  0.648E-04  0.659E-04
  -5.319  0.275E-03  0.434E-04  0.230E-04  0.239E-04  0.927E-04  0.921E-04
  -5.309  0.369E-03  0.571E-04  0.306E-04  0.321E-04  0.126E-03  0.123E-03
  -5.299  0.477E-03  0.728E-04  0.393E-04  0.417E-04  0.164E-03  0.159E-03
  -5.289  0.601E-03  0.906E-04  0.492E-04  0.526E-04  0.208E-03  0.200E-03
  -5.279  0.739E-03  0.110E-03  0.603E-04  0.648E-04  0.258E-03  0.245E-03
  -5.269  0.143E-02  0.191E-03  0.106E-03  0.136E-03  0.563E-03  0.437E-03
  -5.259  0.304E-02  0.386E-03  0.207E-03  0.296E-03  0.128E-02  0.876E-03
  -5.249  0.380E-02  0.518E-03  0.251E-03  0.350E-03  0.158E-02  0.111E-02
  -5.239  0.418E-02  0.647E-03  0.273E-03  0.344E-03  0.164E-02  0.128E-02
  -5.229  0.509E-02  0.813E-03  0.353E-03  0.404E-03  0.188E-02  0.163E-02
  -5.219  0.607E-02  0.915E-03  0.462E-03  0.512E-03  0.219E-02  0.200E-02
  -5.209  0.410E-02  0.641E-03  0.301E-03  0.331E-03  0.148E-02  0.135E-02
  -5.199  0.313E-02  0.513E-03  0.222E-03  0.241E-03  0.113E-02  0.102E-02
  -5.189  0.315E-02  0.530E-03  0.222E-03  0.238E-03  0.114E-02  0.102E-02
  -5.179  0.360E-02  0.567E-03  0.263E-03  0.292E-03  0.134E-02  0.115E-02
  -5.169  0.459E-02  0.600E-03  0.359E-03  0.431E-03  0.182E-02  0.139E-02
  -5.159  0.362E-02  0.577E-03  0.260E-03  0.293E-03  0.136E-02  0.113E-02
  -5.149  0.278E-02  0.556E-03  0.180E-03  0.176E-03  0.949E-03  0.920E-03
  -5.139  0.293E-02  0.598E-03  0.198E-03  0.185E-03  0.958E-03  0.993E-03
  -5.129  0.286E-02  0.586E-03  0.199E-03  0.182E-03  0.913E-03  0.977E-03
  -5.119  0.276E-02  0.565E-03  0.198E-03  0.179E-03  0.868E-03  0.950E-03
  -5.109  0.267E-02  0.544E-03  0.197E-03  0.177E-03  0.831E-03  0.925E-03
  -5.099  0.260E-02  0.523E-03  0.198E-03  0.178E-03  0.801E-03  0.902E-03
  -5.089  0.261E-02  0.521E-03  0.200E-03  0.181E-03  0.809E-03  0.900E-03
  -5.079  0.264E-02  0.521E-03  0.204E-03  0.185E-03  0.817E-03  0.914E-03
  -5.069  0.261E-02  0.497E-03  0.207E-03  0.189E-03  0.815E-03  0.902E-03
  -5.059  0.258E-02  0.476E-03  0.210E-03  0.193E-03  0.811E-03  0.890E-03
  -5.049  0.254E-02  0.455E-03  0.211E-03  0.197E-03  0.806E-03  0.876E-03
  -5.039  0.251E-02  0.437E-03  0.213E-03  0.200E-03  0.798E-03  0.863E-03
  -5.029  0.247E-02  0.419E-03  0.215E-03  0.202E-03  0.787E-03  0.847E-03
  -5.019  0.242E-02  0.401E-03  0.215E-03  0.203E-03  0.771E-03  0.829E-03
  -5.009  0.247E-02  0.397E-03  0.226E-03  0.215E-03  0.787E-03  0.842E-03
  -4.999  0.276E-02  0.424E-03  0.263E-03  0.254E-03  0.883E-03  0.934E-03
  -4.989  0.329E-02  0.483E-03  0.326E-03  0.319E-03  0.106E-02  0.110E-02
  -4.979  0.408E-02  0.575E-03  0.416E-03  0.412E-03  0.132E-02  0.135E-02
  -4.969  0.512E-02  0.700E-03  0.532E-03  0.532E-03  0.167E-02  0.169E-02
  -4.959  0.641E-02  0.853E-03  0.674E-03  0.678E-03  0.211E-02  0.210E-02
  -4.949  0.113E-02  0.270E-03  0.724E-04  0.568E-04  0.315E-03  0.418E-03
  -4.939  0.187E-02  0.717E-03  0.801E-04  0.664E-04  0.427E-03  0.577E-03
  -4.929  0.118E-02  0.282E-03  0.771E-04  0.629E-04  0.332E-03  0.430E-03
  -4.919  0.715E-03  0.168E-03  0.480E-04  0.403E-04  0.199E-03  0.259E-03
  -4.909  0.373E-03  0.859E-04  0.256E-04  0.226E-04  0.102E-03  0.136E-03
  -4.899  0.149E-03  0.331E-04  0.978E-05  0.927E-05  0.386E-04  0.581E-04
  -4.889  0.306E-02  0.253E-03  0.259E-03  0.478E-03  0.138E-02  0.695E-03
  -4.879  0.515E-02  0.248E-03  0.484E-03  0.897E-03  0.242E-02  0.111E-02
  -4.869  0.194E-02  0.120E-03  0.174E-03  0.322E-03  0.893E-03  0.433E-03
  -4.859  0.352E-03  0.112E-03  0.475E-05  0.530E-05  0.109E-03  0.121E-03
  -4.849  0.116E-02  0.191E-03  0.914E-04  0.417E-04  0.318E-03  0.517E-03
  -4.839  0.187E-02  0.280E-03  0.171E-03  0.761E-04  0.492E-03  0.851E-03
  -4.829  0.218E-02  0.330E-03  0.206E-03  0.927E-04  0.561E-03  0.987E-03
  -4.819  0.207E-02  0.338E-03  0.196E-03  0.907E-04  0.525E-03  0.919E-03
  -4.809  0.156E-02  0.308E-03  0.142E-03  0.724E-04  0.387E-03  0.652E-03
  -4.799  0.797E-03  0.256E-03  0.562E-04  0.379E-04  0.186E-03  0.260E-03
  -4.789  0.971E-03  0.294E-03  0.691E-04  0.472E-04  0.240E-03  0.320E-03
  -4.779  0.121E-02  0.351E-03  0.838E-04  0.593E-04  0.317E-03  0.400E-03
  -4.769  0.149E-02  0.421E-03  0.972E-04  0.706E-04  0.410E-03  0.492E-03
  -4.759  0.100E-02  0.231E-03  0.103E-03  0.746E-04  0.267E-03  0.325E-03
  -4.749  0.107E-02  0.223E-03  0.116E-03  0.862E-04  0.298E-03  0.347E-03
  -4.739  0.114E-02  0.213E-03  0.128E-03  0.980E-04  0.333E-03  0.372E-03
  -4.729  0.122E-02  0.201E-03  0.140E-03  0.110E-03  0.371E-03  0.399E-03
  -4.719  0.130E-02  0.186E-03  0.152E-03  0.123E-03  0.411E-03  0.427E-03
  -4.709  0.137E-02  0.168E-03  0.163E-03  0.135E-03  0.453E-03  0.456E-03
  -4.699  0.145E-02  0.146E-03  0.173E-03  0.148E-03  0.497E-03  0.487E-03
  -4.689  0.170E-02  0.179E-03  0.200E-03  0.187E-03  0.583E-03  0.553E-03
  -4.679  0.230E-02  0.341E-03  0.263E-03  0.279E-03  0.732E-03  0.688E-03
  -4.669  0.272E-02  0.507E-03  0.307E-03  0.342E-03  0.801E-03  0.761E-03
  -4.659  0.267E-02  0.570E-03  0.296E-03  0.341E-03  0.749E-03  0.716E-03
  -4.649  0.222E-02  0.524E-03  0.241E-03  0.285E-03  0.599E-03  0.573E-03
  -4.639  0.137E-02  0.367E-03  0.142E-03  0.176E-03  0.350E-03  0.332E-03
  -4.629  0.368E-03  0.113E-03  0.322E-04  0.411E-04  0.977E-04  0.837E-04
  -4.619  0.788E-03  0.992E-04  0.531E-04  0.487E-04  0.325E-03  0.263E-03
  -4.609  0.171E-02  0.241E-03  0.911E-04  0.949E-04  0.673E-03  0.609E-03
  -4.599  0.146E-02  0.321E-03  0.672E-04  0.793E-04  0.525E-03  0.470E-03
  -4.589  0.447E-03  0.124E-03  0.222E-04  0.254E-04  0.151E-03  0.124E-03
  -4.579  0.467E-03  0.129E-03  0.234E-04  0.268E-04  0.158E-03  0.129E-03
  -4.569  0.499E-03  0.133E-03  0.315E-04  0.351E-04  0.165E-03  0.134E-03
  -4.559  0.725E-03  0.142E-03  0.128E-03  0.132E-03  0.178E-03  0.145E-03
  -4.549  0.987E-03  0.154E-03  0.228E-03  0.234E-03  0.202E-03  0.168E-03
  -4.539  0.129E-02  0.170E-03  0.333E-03  0.340E-03  0.239E-03  0.204E-03
  -4.529  0.162E-02  0.188E-03  0.442E-03  0.450E-03  0.289E-03  0.251E-03
  -4.519  0.183E-02  0.166E-03  0.548E-03  0.555E-03  0.280E-03  0.284E-03
  -4.509  0.232E-02  0.179E-03  0.722E-03  0.729E-03  0.324E-03  0.368E-03
  -4.499  0.312E-02  0.207E-03  0.101E-02  0.102E-02  0.412E-03  0.478E-03
  -4.489  0.415E-02  0.226E-03  0.140E-02  0.141E-02  0.507E-03  0.598E-03
  -4.479  0.703E-02  0.264E-03  0.259E-02  0.263E-02  0.817E-03  0.734E-03
  -4.469  0.262E-02  0.260E-03  0.610E-03  0.614E-03  0.579E-03  0.560E-03
  -4.459  0.198E-02  0.290E-03  0.246E-03  0.243E-03  0.602E-03  0.604E-03
  -4.449  0.233E-02  0.334E-03  0.290E-03  0.288E-03  0.709E-03  0.709E-03
  -4.439  0.401E-02  0.564E-03  0.501E-03  0.498E-03  0.123E-02  0.122E-02
  -4.429  0.315E-02  0.445E-03  0.396E-03  0.393E-03  0.966E-03  0.953E-03
  -4.419  0.251E-02  0.351E-03  0.320E-03  0.317E-03  0.765E-03  0.754E-03
  -4.409  0.207E-02  0.282E-03  0.274E-03  0.272E-03  0.622E-03  0.618E-03
  -4.399  0.184E-02  0.238E-03  0.259E-03  0.257E-03  0.537E-03  0.545E-03
  -4.389  0.180E-02  0.223E-03  0.269E-03  0.267E-03  0.513E-03  0.528E-03
  -4.379  0.180E-02  0.211E-03  0.285E-03  0.283E-03  0.498E-03  0.520E-03
  -4.369  0.180E-02  0.197E-03  0.303E-03  0.303E-03  0.479E-03  0.513E-03
  -4.359  0.197E-02  0.224E-03  0.352E-03  0.355E-03  0.497E-03  0.547E-03
  -4.349  0.268E-02  0.235E-03  0.596E-03  0.603E-03  0.592E-03  0.655E-03
  -4.339  0.360E-02  0.230E-03  0.922E-03  0.932E-03  0.725E-03  0.795E-03
  -4.329  0.411E-02  0.211E-03  0.110E-02  0.111E-02  0.815E-03  0.876E-03
  -4.319  0.422E-02  0.197E-03  0.111E-02  0.113E-02  0.871E-03  0.904E-03
  -4.309  0.440E-02  0.190E-03  0.115E-02  0.116E-02  0.946E-03  0.950E-03
  -4.299  0.470E-02  0.179E-03  0.124E-02  0.125E-02  0.103E-02  0.101E-02
  -4.289  0.471E-02  0.155E-03  0.129E-02  0.131E-02  0.101E-02  0.945E-03
  -4.279  0.464E-02  0.130E-03  0.133E-02  0.135E-02  0.964E-03  0.857E-03
  -4.269  0.448E-02  0.103E-03  0.135E-02  0.137E-02  0.908E-03  0.742E-03
  -4.259  0.398E-02  0.770E-04  0.125E-02  0.129E-02  0.823E-03  0.541E-03
  -4.249  0.146E-02  0.569E-04  0.460E-03  0.450E-03  0.250E-03  0.240E-03
  -4.239  0.143E-02  0.530E-04  0.455E-03  0.447E-03  0.241E-03  0.234E-03
  -4.229  0.210E-02  0.133E-03  0.539E-03  0.512E-03  0.424E-03  0.489E-03
  -4.219  0.213E-02  0.141E-03  0.529E-03  0.509E-03  0.464E-03  0.485E-03
  -4.209  0.208E-02  0.144E-03  0.507E-03  0.490E-03  0.467E-03  0.473E-03
  -4.199  0.198E-02  0.142E-03  0.475E-03  0.460E-03  0.443E-03  0.457E-03
  -4.189  0.191E-02  0.146E-03  0.450E-03  0.437E-03  0.429E-03  0.450E-03
  -4.179  0.190E-02  0.158E-03  0.434E-03  0.423E-03  0.428E-03  0.456E-03
  -4.169  0.193E-02  0.176E-03  0.426E-03  0.418E-03  0.440E-03  0.474E-03
  -4.159  0.202E-02  0.202E-03  0.426E-03  0.421E-03  0.465E-03  0.504E-03
  -4.149  0.215E-02  0.235E-03  0.435E-03  0.434E-03  0.503E-03  0.547E-03
  -4.139  0.230E-02  0.267E-03  0.448E-03  0.451E-03  0.542E-03  0.589E-03
  -4.129  0.247E-02  0.304E-03  0.467E-03  0.473E-03  0.589E-03  0.638E-03
  -4.119  0.270E-02  0.351E-03  0.497E-03  0.505E-03  0.650E-03  0.700E-03
  -4.109  0.275E-02  0.360E-03  0.507E-03  0.519E-03  0.655E-03  0.712E-03
  -4.099  0.193E-02  0.195E-03  0.416E-03  0.422E-03  0.422E-03  0.471E-03
  -4.089  0.198E-02  0.197E-03  0.435E-03  0.441E-03  0.427E-03  0.484E-03
  -4.079  0.204E-02  0.197E-03  0.454E-03  0.460E-03  0.431E-03  0.495E-03
  -4.069  0.208E-02  0.192E-03  0.477E-03  0.482E-03  0.434E-03  0.499E-03
  -4.059  0.216E-02  0.194E-03  0.502E-03  0.507E-03  0.442E-03  0.510E-03
  -4.049  0.222E-02  0.195E-03  0.527E-03  0.532E-03  0.448E-03  0.519E-03
  -4.039  0.228E-02  0.196E-03  0.551E-03  0.555E-03  0.452E-03  0.526E-03
  -4.029  0.233E-02  0.196E-03  0.575E-03  0.577E-03  0.455E-03  0.531E-03
  -4.019  0.238E-02  0.195E-03  0.597E-03  0.598E-03  0.456E-03  0.534E-03
  -4.009  0.242E-02  0.194E-03  0.619E-03  0.618E-03  0.455E-03  0.535E-03
  -3.999  0.246E-02  0.192E-03  0.640E-03  0.638E-03  0.452E-03  0.534E-03
  -3.989  0.343E-02  0.205E-03  0.904E-03  0.977E-03  0.757E-03  0.584E-03
  -3.979  0.291E-02  0.168E-03  0.775E-03  0.834E-03  0.633E-03  0.497E-03
  -3.969  0.244E-02  0.135E-03  0.658E-03  0.705E-03  0.521E-03  0.418E-03
  -3.959  0.253E-02  0.229E-03  0.601E-03  0.649E-03  0.532E-03  0.516E-03
  -3.949  0.218E-02  0.237E-03  0.511E-03  0.553E-03  0.441E-03  0.443E-03
  -3.939  0.192E-02  0.238E-03  0.442E-03  0.479E-03  0.369E-03  0.388E-03
  -3.929  0.173E-02  0.157E-03  0.420E-03  0.453E-03  0.325E-03  0.374E-03
  -3.919  0.166E-02  0.149E-03  0.408E-03  0.440E-03  0.295E-03  0.370E-03
  -3.909  0.165E-02  0.149E-03  0.406E-03  0.440E-03  0.281E-03  0.376E-03
  -3.899  0.170E-02  0.156E-03  0.415E-03  0.454E-03  0.282E-03  0.391E-03
  -3.889  0.177E-02  0.167E-03  0.427E-03  0.472E-03  0.289E-03  0.411E-03
  -3.879  0.183E-02  0.176E-03  0.436E-03  0.487E-03  0.295E-03  0.431E-03
  -3.869  0.187E-02  0.183E-03  0.442E-03  0.498E-03  0.298E-03  0.452E-03
  -3.859  0.191E-02  0.188E-03  0.444E-03  0.506E-03  0.299E-03  0.474E-03
  -3.849  0.193E-02  0.188E-03  0.443E-03  0.508E-03  0.296E-03  0.493E-03
  -3.839  0.186E-02  0.162E-03  0.427E-03  0.494E-03  0.278E-03  0.497E-03
  -3.829  0.174E-02  0.127E-03  0.398E-03  0.466E-03  0.250E-03  0.498E-03
  -3.819  0.162E-02  0.958E-04  0.365E-03  0.436E-03  0.223E-03  0.503E-03
  -3.809  0.896E-03  0.374E-04  0.302E-03  0.281E-03  0.160E-03  0.116E-03
  -3.799  0.167E-02  0.500E-04  0.479E-03  0.512E-03  0.422E-03  0.203E-03
  -3.789  0.239E-02  0.735E-04  0.651E-03  0.716E-03  0.652E-03  0.294E-03
  -3.779  0.290E-02  0.997E-04  0.778E-03  0.850E-03  0.796E-03  0.372E-03
  -3.769  0.306E-02  0.125E-03  0.815E-03  0.873E-03  0.830E-03  0.421E-03
  -3.759  0.289E-02  0.149E-03  0.762E-03  0.787E-03  0.754E-03  0.440E-03
  -3.749  0.239E-02  0.174E-03  0.621E-03  0.595E-03  0.568E-03  0.432E-03
  -3.739  0.640E-02  0.229E-03  0.846E-03  0.122E-02  0.226E-02  0.184E-02
  -3.729  0.342E-02  0.111E-03  0.534E-03  0.684E-03  0.116E-02  0.936E-03
  -3.719  0.138E-02  0.806E-04  0.400E-03  0.344E-03  0.295E-03  0.257E-03
  -3.709  0.128E-02  0.702E-04  0.378E-03  0.316E-03  0.262E-03  0.252E-03
  -3.699  0.121E-02  0.617E-04  0.362E-03  0.295E-03  0.240E-03  0.252E-03
  -3.689  0.128E-02  0.568E-04  0.374E-03  0.306E-03  0.256E-03  0.285E-03
  -3.679  0.155E-02  0.567E-04  0.438E-03  0.370E-03  0.326E-03  0.360E-03
  -3.669  0.204E-02  0.626E-04  0.552E-03  0.487E-03  0.456E-03  0.486E-03
  -3.659  0.272E-02  0.724E-04  0.708E-03  0.648E-03  0.635E-03  0.658E-03
  -3.649  0.358E-02  0.855E-04  0.906E-03  0.852E-03  0.860E-03  0.874E-03
  -3.639  0.463E-02  0.102E-03  0.115E-02  0.110E-02  0.114E-02  0.114E-02
  -3.629  0.144E-02  0.476E-04  0.345E-03  0.313E-03  0.358E-03  0.380E-03
  -3.619  0.155E-02  0.477E-04  0.357E-03  0.328E-03  0.395E-03  0.427E-03
  -3.609  0.168E-02  0.493E-04  0.372E-03  0.347E-03  0.435E-03  0.475E-03
  -3.599  0.180E-02  0.508E-04  0.390E-03  0.367E-03  0.474E-03  0.520E-03
  -3.589  0.193E-02  0.523E-04  0.410E-03  0.390E-03  0.512E-03  0.561E-03
  -3.579  0.205E-02  0.537E-04  0.433E-03  0.415E-03  0.549E-03  0.599E-03
  -3.569  0.217E-02  0.551E-04  0.458E-03  0.443E-03  0.584E-03  0.633E-03
  -3.559  0.230E-02  0.565E-04  0.485E-03  0.472E-03  0.619E-03  0.664E-03
  -3.549  0.242E-02  0.579E-04  0.515E-03  0.503E-03  0.652E-03  0.692E-03
  -3.539  0.263E-02  0.605E-04  0.569E-03  0.556E-03  0.703E-03  0.737E-03
  -3.529  0.298E-02  0.654E-04  0.661E-03  0.647E-03  0.789E-03  0.817E-03
  -3.519  0.349E-02  0.732E-04  0.793E-03  0.775E-03  0.911E-03  0.934E-03
  -3.509  0.421E-02  0.866E-04  0.980E-03  0.957E-03  0.108E-02  0.110E-02
  -3.499  0.516E-02  0.106E-03  0.122E-02  0.120E-02  0.131E-02  0.133E-02
  -3.489  0.348E-02  0.851E-04  0.813E-03  0.806E-03  0.878E-03  0.893E-03
  -3.479  0.382E-02  0.996E-04  0.905E-03  0.902E-03  0.951E-03  0.961E-03
  -3.469  0.304E-02  0.665E-04  0.722E-03  0.696E-03  0.782E-03  0.777E-03
  -3.459  0.312E-02  0.668E-04  0.735E-03  0.710E-03  0.804E-03  0.804E-03
  -3.449  0.319E-02  0.670E-04  0.746E-03  0.722E-03  0.826E-03  0.828E-03
  -3.439  0.325E-02  0.670E-04  0.755E-03  0.732E-03  0.847E-03  0.851E-03
  -3.429  0.331E-02  0.670E-04  0.761E-03  0.740E-03  0.867E-03  0.871E-03
  -3.419  0.336E-02  0.668E-04  0.766E-03  0.747E-03  0.887E-03  0.889E-03
  -3.409  0.340E-02  0.665E-04  0.769E-03  0.753E-03  0.906E-03  0.905E-03
  -3.399  0.344E-02  0.662E-04  0.769E-03  0.757E-03  0.925E-03  0.919E-03
  -3.389  0.347E-02  0.657E-04  0.767E-03  0.759E-03  0.943E-03  0.930E-03
  -3.379  0.349E-02  0.651E-04  0.764E-03  0.759E-03  0.961E-03  0.940E-03
  -3.369  0.351E-02  0.644E-04  0.759E-03  0.759E-03  0.979E-03  0.948E-03
  -3.359  0.355E-02  0.644E-04  0.756E-03  0.763E-03  0.101E-02  0.962E-03
  -3.349  0.390E-02  0.658E-04  0.797E-03  0.847E-03  0.113E-02  0.106E-02
  -3.339  0.411E-02  0.675E-04  0.827E-03  0.904E-03  0.119E-02  0.112E-02
  -3.329  0.428E-02  0.701E-04  0.852E-03  0.947E-03  0.124E-02  0.117E-02
  -3.319  0.440E-02  0.728E-04  0.872E-03  0.976E-03  0.127E-02  0.120E-02
  -3.309  0.447E-02  0.757E-04  0.887E-03  0.990E-03  0.129E-02  0.122E-02
  -3.299  0.449E-02  0.786E-04  0.895E-03  0.990E-03  0.130E-02  0.123E-02
  -3.289  0.447E-02  0.817E-04  0.897E-03  0.976E-03  0.129E-02  0.123E-02
  -3.279  0.441E-02  0.850E-04  0.894E-03  0.947E-03  0.126E-02  0.122E-02
  -3.269  0.428E-02  0.884E-04  0.884E-03  0.902E-03  0.122E-02  0.119E-02
  -3.259  0.408E-02  0.824E-04  0.874E-03  0.825E-03  0.113E-02  0.117E-02
  -3.249  0.417E-02  0.837E-04  0.892E-03  0.836E-03  0.115E-02  0.120E-02
  -3.239  0.418E-02  0.845E-04  0.892E-03  0.841E-03  0.116E-02  0.121E-02
  -3.229  0.413E-02  0.847E-04  0.874E-03  0.839E-03  0.115E-02  0.118E-02
  -3.219  0.415E-02  0.852E-04  0.870E-03  0.843E-03  0.117E-02  0.119E-02
  -3.209  0.419E-02  0.857E-04  0.870E-03  0.848E-03  0.119E-02  0.120E-02
  -3.199  0.423E-02  0.861E-04  0.867E-03  0.852E-03  0.121E-02  0.122E-02
  -3.189  0.427E-02  0.863E-04  0.862E-03  0.855E-03  0.123E-02  0.123E-02
  -3.179  0.430E-02  0.865E-04  0.857E-03  0.859E-03  0.125E-02  0.125E-02
  -3.169  0.434E-02  0.867E-04  0.852E-03  0.863E-03  0.128E-02  0.127E-02
  -3.159  0.438E-02  0.868E-04  0.844E-03  0.866E-03  0.130E-02  0.128E-02
  -3.149  0.442E-02  0.867E-04  0.836E-03  0.870E-03  0.133E-02  0.130E-02
  -3.139  0.448E-02  0.848E-04  0.841E-03  0.882E-03  0.136E-02  0.132E-02
  -3.129  0.458E-02  0.841E-04  0.851E-03  0.902E-03  0.139E-02  0.135E-02
  -3.119  0.470E-02  0.837E-04  0.866E-03  0.926E-03  0.144E-02  0.138E-02
  -3.109  0.484E-02  0.838E-04  0.888E-03  0.956E-03  0.149E-02  0.143E-02
  -3.099  0.500E-02  0.839E-04  0.912E-03  0.989E-03  0.154E-02  0.147E-02
  -3.089  0.516E-02  0.842E-04  0.937E-03  0.102E-02  0.159E-02  0.152E-02
  -3.079  0.533E-02  0.845E-04  0.964E-03  0.106E-02  0.165E-02  0.157E-02
  -3.069  0.552E-02  0.850E-04  0.992E-03  0.110E-02  0.171E-02  0.163E-02
  -3.059  0.554E-02  0.838E-04  0.991E-03  0.113E-02  0.172E-02  0.162E-02
  -3.049  0.553E-02  0.821E-04  0.982E-03  0.116E-02  0.172E-02  0.158E-02
  -3.039  0.522E-02  0.782E-04  0.950E-03  0.112E-02  0.161E-02  0.147E-02
  -3.029  0.650E-02  0.954E-04  0.133E-02  0.147E-02  0.186E-02  0.174E-02
  -3.019  0.678E-02  0.163E-03  0.151E-02  0.148E-02  0.183E-02  0.180E-02
  -3.009  0.571E-02  0.857E-04  0.121E-02  0.132E-02  0.155E-02  0.154E-02
  -2.999  0.554E-02  0.866E-04  0.119E-02  0.129E-02  0.149E-02  0.149E-02
  -2.989  0.537E-02  0.872E-04  0.116E-02  0.125E-02  0.143E-02  0.144E-02
  -2.979  0.520E-02  0.875E-04  0.113E-02  0.121E-02  0.137E-02  0.140E-02
  -2.969  0.502E-02  0.874E-04  0.109E-02  0.117E-02  0.132E-02  0.135E-02
  -2.959  0.483E-02  0.870E-04  0.105E-02  0.112E-02  0.126E-02  0.130E-02
  -2.949  0.474E-02  0.927E-04  0.102E-02  0.109E-02  0.124E-02  0.129E-02
  -2.939  0.479E-02  0.914E-04  0.102E-02  0.110E-02  0.127E-02  0.131E-02
  -2.929  0.484E-02  0.906E-04  0.101E-02  0.110E-02  0.130E-02  0.133E-02
  -2.919  0.486E-02  0.900E-04  0.100E-02  0.110E-02  0.132E-02  0.135E-02
  -2.909  0.655E-02  0.120E-03  0.137E-02  0.143E-02  0.168E-02  0.194E-02
  -2.899  0.583E-02  0.108E-03  0.117E-02  0.128E-02  0.157E-02  0.170E-02
  -2.889  0.493E-02  0.848E-04  0.971E-03  0.105E-02  0.139E-02  0.144E-02
  -2.879  0.435E-02  0.735E-04  0.830E-03  0.909E-03  0.127E-02  0.127E-02
  -2.869  0.367E-02  0.581E-04  0.677E-03  0.768E-03  0.110E-02  0.107E-02
  -2.859  0.349E-02  0.462E-04  0.669E-03  0.765E-03  0.102E-02  0.992E-03
  -2.849  0.400E-02  0.469E-04  0.817E-03  0.897E-03  0.111E-02  0.113E-02
  -2.839  0.450E-02  0.543E-04  0.951E-03  0.102E-02  0.121E-02  0.127E-02
  -2.829  0.473E-02  0.674E-04  0.101E-02  0.107E-02  0.126E-02  0.133E-02
  -2.819  0.474E-02  0.815E-04  0.999E-03  0.106E-02  0.126E-02  0.134E-02
  -2.809  0.473E-02  0.961E-04  0.986E-03  0.104E-02  0.126E-02  0.134E-02
  -2.799  0.496E-02  0.116E-03  0.105E-02  0.107E-02  0.133E-02  0.140E-02
  -2.789  0.920E-02  0.227E-03  0.165E-02  0.152E-02  0.206E-02  0.374E-02
  -2.779  0.459E-02  0.161E-03  0.101E-02  0.969E-03  0.121E-02  0.124E-02
  -2.769  0.525E-02  0.205E-03  0.111E-02  0.107E-02  0.142E-02  0.145E-02
  -2.759  0.589E-02  0.256E-03  0.119E-02  0.116E-02  0.163E-02  0.165E-02
  -2.749  0.866E-02  0.310E-03  0.169E-02  0.182E-02  0.246E-02  0.237E-02
  -2.739  0.808E-02  0.364E-03  0.152E-02  0.161E-02  0.234E-02  0.224E-02
  -2.729  0.759E-02  0.419E-03  0.137E-02  0.143E-02  0.225E-02  0.214E-02
  -2.719  0.721E-02  0.473E-03  0.123E-02  0.127E-02  0.218E-02  0.206E-02
  -2.709  0.184E-01  0.288E-02  0.126E-02  0.128E-02  0.693E-02  0.605E-02
  -2.699  0.103E-01  0.920E-03  0.112E-02  0.113E-02  0.397E-02  0.314E-02
  -2.689  0.975E-02  0.940E-03  0.107E-02  0.112E-02  0.346E-02  0.316E-02
  -2.679  0.110E-01  0.143E-02  0.107E-02  0.116E-02  0.370E-02  0.365E-02
  -2.669  0.125E-01  0.188E-02  0.113E-02  0.124E-02  0.408E-02  0.417E-02
  -2.659  0.158E-01  0.226E-02  0.171E-02  0.166E-02  0.505E-02  0.510E-02
  -2.649  0.166E-01  0.254E-02  0.162E-02  0.158E-02  0.543E-02  0.539E-02
  -2.639  0.218E-01  0.277E-02  0.195E-02  0.272E-02  0.746E-02  0.692E-02
  -2.629  0.110E-01  0.129E-02  0.135E-02  0.169E-02  0.344E-02  0.327E-02
  -2.619  0.982E-02  0.138E-02  0.101E-02  0.127E-02  0.321E-02  0.294E-02
  -2.609  0.469E-02  0.569E-03  0.527E-03  0.726E-03  0.149E-02  0.138E-02
  -2.599  0.353E-02  0.478E-03  0.390E-03  0.480E-03  0.110E-02  0.108E-02
  -2.589  0.273E-02  0.431E-03  0.340E-03  0.288E-03  0.765E-03  0.903E-03
  -2.579  0.252E-02  0.379E-03  0.338E-03  0.268E-03  0.696E-03  0.841E-03
  -2.569  0.234E-02  0.331E-03  0.343E-03  0.253E-03  0.629E-03  0.787E-03
  -2.559  0.742E-02  0.374E-03  0.939E-03  0.690E-03  0.332E-02  0.209E-02
  -2.549  0.142E-02  0.236E-03  0.127E-03  0.131E-03  0.424E-03  0.497E-03
  -2.539  0.143E-01  0.282E-03  0.419E-02  0.159E-02  0.243E-02  0.576E-02
  -2.529  0.306E-02  0.314E-03  0.534E-03  0.521E-03  0.730E-03  0.964E-03
  -2.519  0.306E-02  0.371E-03  0.426E-03  0.436E-03  0.824E-03  0.101E-02
  -2.509  0.133E-01  0.603E-03  0.178E-02  0.183E-02  0.448E-02  0.459E-02
  -2.499  0.132E-01  0.728E-03  0.169E-02  0.177E-02  0.445E-02  0.455E-02
  -2.489  0.129E-01  0.801E-03  0.160E-02  0.171E-02  0.433E-02  0.442E-02
  -2.479  0.122E-01  0.812E-03  0.151E-02  0.166E-02  0.408E-02  0.416E-02
  -2.469  0.113E-01  0.762E-03  0.142E-02  0.161E-02  0.372E-02  0.380E-02
  -2.459  0.101E-01  0.649E-03  0.132E-02  0.156E-02  0.323E-02  0.331E-02
  -2.449  0.853E-02  0.475E-03  0.122E-02  0.151E-02  0.262E-02  0.270E-02
  -2.439  0.679E-02  0.258E-03  0.112E-02  0.147E-02  0.193E-02  0.201E-02
  -2.429  0.632E-02  0.279E-03  0.107E-02  0.148E-02  0.170E-02  0.179E-02
  -2.419  0.588E-02  0.301E-03  0.105E-02  0.147E-02  0.146E-02  0.160E-02
  -2.409  0.586E-02  0.363E-03  0.113E-02  0.146E-02  0.131E-02  0.159E-02
  -2.399  0.585E-02  0.422E-03  0.122E-02  0.136E-02  0.119E-02  0.165E-02
  -2.389  0.127E-01  0.709E-03  0.238E-02  0.187E-02  0.366E-02  0.404E-02
  -2.379  0.634E-01  0.665E-03  0.102E-01  0.892E-02  0.223E-01  0.214E-01
  -2.369  0.866E-02  0.229E-03  0.147E-02  0.128E-02  0.284E-02  0.286E-02
  -2.359  0.599E-02  0.137E-03  0.972E-03  0.875E-03  0.201E-02  0.199E-02
  -2.349  0.124E-01  0.612E-03  0.220E-02  0.171E-02  0.388E-02  0.399E-02
  -2.339  0.746E-02  0.613E-03  0.131E-02  0.995E-03  0.224E-02  0.230E-02
  -2.329  0.618E-02  0.698E-03  0.897E-03  0.700E-03  0.194E-02  0.194E-02
  -2.319  0.638E-02  0.805E-03  0.683E-03  0.658E-03  0.213E-02  0.210E-02
  -2.309  0.696E-02  0.930E-03  0.666E-03  0.702E-03  0.238E-02  0.229E-02
  -2.299  0.609E-02  0.794E-03  0.565E-03  0.661E-03  0.210E-02  0.197E-02
  -2.289  0.453E-02  0.526E-03  0.476E-03  0.602E-03  0.155E-02  0.138E-02
  -2.279  0.414E-02  0.466E-03  0.494E-03  0.619E-03  0.136E-02  0.120E-02
  -2.269  0.378E-02  0.421E-03  0.508E-03  0.625E-03  0.117E-02  0.105E-02
  -2.259  0.361E-02  0.381E-03  0.522E-03  0.632E-03  0.109E-02  0.986E-03
  -2.249  0.376E-02  0.348E-03  0.569E-03  0.678E-03  0.113E-02  0.103E-02
  -2.239  0.400E-02  0.318E-03  0.630E-03  0.742E-03  0.120E-02  0.111E-02
  -2.229  0.421E-02  0.289E-03  0.685E-03  0.798E-03  0.125E-02  0.119E-02
  -2.219  0.440E-02  0.261E-03  0.735E-03  0.845E-03  0.130E-02  0.126E-02
  -2.209  0.458E-02  0.234E-03  0.780E-03  0.885E-03  0.134E-02  0.134E-02
  -2.199  0.473E-02  0.207E-03  0.820E-03  0.916E-03  0.138E-02  0.141E-02
  -2.189  0.487E-02  0.181E-03  0.855E-03  0.939E-03  0.141E-02  0.149E-02
  -2.179  0.128E-01  0.337E-03  0.201E-02  0.271E-02  0.425E-02  0.349E-02
  -2.169  0.585E-02  0.414E-04  0.736E-03  0.685E-03  0.209E-02  0.230E-02
  -2.159  0.122E-01  0.973E-04  0.154E-02  0.120E-02  0.427E-02  0.514E-02
  -2.149  0.208E-01  0.204E-03  0.283E-02  0.233E-02  0.716E-02  0.827E-02
  -2.139  0.319E-01  0.264E-03  0.434E-02  0.390E-02  0.113E-01  0.121E-01
  -2.129  0.360E-01  0.308E-03  0.483E-02  0.463E-02  0.131E-01  0.131E-01
  -2.119  0.675E-02  0.121E-03  0.145E-02  0.139E-02  0.183E-02  0.195E-02
  -2.109  0.531E-02  0.101E-03  0.122E-02  0.119E-02  0.135E-02  0.145E-02
  -2.099  0.619E-02  0.206E-03  0.145E-02  0.176E-02  0.138E-02  0.139E-02
  -2.089  0.267E-02  0.571E-04  0.489E-03  0.602E-03  0.761E-03  0.764E-03
  -2.079  0.246E-02  0.516E-04  0.447E-03  0.576E-03  0.698E-03  0.690E-03
  -2.069  0.231E-02  0.462E-04  0.414E-03  0.559E-03  0.656E-03  0.635E-03
  -2.059  0.221E-02  0.410E-04  0.390E-03  0.550E-03  0.634E-03  0.599E-03
  -2.049  0.252E-02  0.449E-04  0.452E-03  0.641E-03  0.707E-03  0.679E-03
  -2.039  0.252E-02  0.436E-04  0.450E-03  0.654E-03  0.713E-03  0.659E-03
  -2.029  0.251E-02  0.424E-04  0.447E-03  0.665E-03  0.715E-03  0.638E-03
  -2.019  0.255E-02  0.422E-04  0.461E-03  0.694E-03  0.724E-03  0.631E-03
  -2.009  0.253E-02  0.417E-04  0.458E-03  0.702E-03  0.718E-03  0.612E-03
  -1.999  0.251E-02  0.414E-04  0.455E-03  0.708E-03  0.708E-03  0.592E-03
  -1.989  0.247E-02  0.412E-04  0.453E-03  0.711E-03  0.694E-03  0.573E-03
  -1.979  0.243E-02  0.411E-04  0.450E-03  0.712E-03  0.676E-03  0.554E-03
  -1.969  0.240E-02  0.411E-04  0.452E-03  0.714E-03  0.657E-03  0.540E-03
  -1.959  0.239E-02  0.413E-04  0.459E-03  0.719E-03  0.637E-03  0.534E-03
  -1.949  0.237E-02  0.415E-04  0.467E-03  0.721E-03  0.612E-03  0.528E-03
  -1.939  0.234E-02  0.417E-04  0.475E-03  0.721E-03  0.583E-03  0.521E-03
  -1.929  0.231E-02  0.419E-04  0.484E-03  0.718E-03  0.549E-03  0.515E-03
  -1.919  0.227E-02  0.420E-04  0.492E-03  0.713E-03  0.511E-03  0.508E-03
  -1.909  0.309E-02  0.677E-04  0.862E-03  0.964E-03  0.571E-03  0.625E-03
  -1.899  0.424E-02  0.946E-04  0.123E-02  0.131E-02  0.726E-03  0.886E-03
  -1.889  0.560E-02  0.119E-03  0.153E-02  0.171E-02  0.965E-03  0.128E-02
  -1.879  0.732E-02  0.140E-03  0.178E-02  0.221E-02  0.136E-02  0.184E-02
  -1.869  0.212E-01  0.122E-03  0.320E-02  0.331E-02  0.646E-02  0.816E-02
  -1.859  0.218E-01  0.203E-02  0.261E-02  0.273E-02  0.682E-02  0.760E-02
  -1.849  0.213E-01  0.169E-02  0.273E-02  0.227E-02  0.729E-02  0.729E-02
  -1.839  0.731E-01  0.151E-02  0.112E-01  0.702E-02  0.273E-01  0.261E-01
  -1.829  0.104E-01  0.712E-03  0.158E-02  0.127E-02  0.345E-02  0.337E-02
  -1.819  0.789E-02  0.412E-03  0.131E-02  0.108E-02  0.258E-02  0.251E-02
  -1.809  0.598E-02  0.224E-03  0.106E-02  0.880E-03  0.194E-02  0.188E-02
  -1.799  0.472E-02  0.151E-03  0.842E-03  0.706E-03  0.154E-02  0.148E-02
  -1.789  0.422E-02  0.143E-03  0.776E-03  0.680E-03  0.134E-02  0.129E-02
  -1.779  0.378E-02  0.135E-03  0.717E-03  0.654E-03  0.116E-02  0.112E-02
  -1.769  0.338E-02  0.127E-03  0.665E-03  0.629E-03  0.994E-03  0.965E-03
  -1.759  0.303E-02  0.120E-03  0.621E-03  0.605E-03  0.853E-03  0.832E-03
  -1.749  0.273E-02  0.112E-03  0.583E-03  0.582E-03  0.732E-03  0.717E-03
  -1.739  0.247E-02  0.105E-03  0.552E-03  0.560E-03  0.631E-03  0.622E-03
  -1.729  0.226E-02  0.978E-04  0.528E-03  0.538E-03  0.550E-03  0.545E-03
  -1.719  0.210E-02  0.909E-04  0.512E-03  0.517E-03  0.489E-03  0.487E-03
  -1.709  0.198E-02  0.840E-04  0.502E-03  0.498E-03  0.448E-03  0.449E-03
  -1.699  0.199E-02  0.795E-04  0.521E-03  0.500E-03  0.444E-03  0.447E-03
  -1.689  0.203E-02  0.755E-04  0.548E-03  0.506E-03  0.446E-03  0.451E-03
  -1.679  0.206E-02  0.717E-04  0.576E-03  0.511E-03  0.447E-03  0.456E-03
  -1.669  0.210E-02  0.679E-04  0.606E-03  0.515E-03  0.447E-03  0.460E-03
  -1.659  0.213E-02  0.643E-04  0.637E-03  0.519E-03  0.447E-03  0.464E-03
  -1.649  0.217E-02  0.608E-04  0.671E-03  0.522E-03  0.447E-03  0.469E-03
  -1.639  0.193E-02  0.557E-04  0.663E-03  0.437E-03  0.376E-03  0.400E-03
  -1.629  0.357E-02  0.520E-04  0.864E-03  0.551E-03  0.105E-02  0.106E-02
  -1.619  0.108E-01  0.515E-04  0.165E-02  0.121E-02  0.397E-02  0.394E-02
  -1.609  0.165E-01  0.554E-04  0.230E-02  0.180E-02  0.621E-02  0.614E-02
  -1.599  0.206E-01  0.635E-04  0.282E-02  0.233E-02  0.777E-02  0.765E-02
  -1.589  0.244E-01  0.777E-04  0.336E-02  0.293E-02  0.907E-02  0.892E-02
  -1.579  0.143E-01  0.118E-03  0.342E-02  0.303E-02  0.398E-02  0.377E-02
  -1.569  0.693E-02  0.568E-04  0.112E-02  0.112E-02  0.237E-02  0.227E-02
  -1.559  0.611E-02  0.295E-04  0.937E-03  0.775E-03  0.220E-02  0.217E-02
  -1.549  0.991E-02  0.173E-03  0.238E-02  0.256E-02  0.240E-02  0.240E-02
  -1.539  0.780E-02  0.723E-04  0.166E-02  0.161E-02  0.224E-02  0.221E-02
  -1.529  0.744E-02  0.618E-04  0.154E-02  0.150E-02  0.218E-02  0.216E-02
  -1.519  0.708E-02  0.525E-04  0.142E-02  0.140E-02  0.211E-02  0.210E-02
  -1.509  0.672E-02  0.444E-04  0.130E-02  0.129E-02  0.204E-02  0.204E-02
  -1.499  0.635E-02  0.375E-04  0.118E-02  0.119E-02  0.197E-02  0.197E-02
  -1.489  0.598E-02  0.318E-04  0.107E-02  0.109E-02  0.189E-02  0.190E-02
  -1.479  0.560E-02  0.274E-04  0.956E-03  0.984E-03  0.182E-02  0.182E-02
  -1.469  0.522E-02  0.242E-04  0.847E-03  0.882E-03  0.174E-02  0.173E-02
  -1.459  0.490E-02  0.222E-04  0.772E-03  0.798E-03  0.166E-02  0.165E-02
  -1.449  0.482E-02  0.210E-04  0.783E-03  0.820E-03  0.160E-02  0.159E-02
  -1.439  0.774E-02  0.202E-04  0.108E-02  0.111E-02  0.277E-02  0.277E-02
  -1.429  0.678E-02  0.194E-04  0.101E-02  0.106E-02  0.235E-02  0.235E-02
  -1.419  0.582E-02  0.189E-04  0.952E-03  0.101E-02  0.193E-02  0.192E-02
  -1.409  0.486E-02  0.185E-04  0.896E-03  0.957E-03  0.150E-02  0.149E-02
  -1.399  0.389E-02  0.183E-04  0.842E-03  0.908E-03  0.106E-02  0.105E-02
  -1.389  0.291E-02  0.184E-04  0.792E-03  0.861E-03  0.627E-03  0.614E-03
  -1.379  0.193E-02  0.186E-04  0.746E-03  0.815E-03  0.186E-03  0.169E-03
  -1.369  0.184E-02  0.190E-04  0.783E-03  0.846E-03  0.104E-03  0.864E-04
  -1.359  0.197E-02  0.196E-04  0.843E-03  0.899E-03  0.112E-03  0.934E-04
  -1.349  0.210E-02  0.202E-04  0.906E-03  0.953E-03  0.120E-03  0.101E-03
  -1.339  0.224E-02  0.209E-04  0.973E-03  0.101E-02  0.129E-03  0.109E-03
  -1.329  0.239E-02  0.216E-04  0.104E-02  0.107E-02  0.138E-03  0.117E-03
  -1.319  0.141E-02  0.154E-04  0.621E-03  0.631E-03  0.793E-04  0.650E-04
  -1.309  0.141E-02  0.152E-04  0.622E-03  0.632E-03  0.789E-04  0.644E-04
  -1.299  0.141E-02  0.149E-04  0.622E-03  0.635E-03  0.787E-04  0.637E-04
  -1.289  0.142E-02  0.147E-04  0.622E-03  0.638E-03  0.785E-04  0.630E-04
  -1.279  0.142E-02  0.145E-04  0.621E-03  0.643E-03  0.785E-04  0.622E-04
  -1.269  0.142E-02  0.143E-04  0.620E-03  0.648E-03  0.786E-04  0.613E-04
  -1.259  0.143E-02  0.141E-04  0.619E-03  0.654E-03  0.788E-04  0.603E-04
  -1.249  0.143E-02  0.140E-04  0.623E-03  0.655E-03  0.782E-04  0.594E-04
  -1.239  0.142E-02  0.138E-04  0.621E-03  0.646E-03  0.763E-04  0.580E-04
  -1.229  0.139E-02  0.135E-04  0.613E-03  0.633E-03  0.741E-04  0.562E-04
  -1.219  0.136E-02  0.131E-04  0.603E-03  0.617E-03  0.717E-04  0.543E-04
  -1.209  0.133E-02  0.127E-04  0.592E-03  0.601E-03  0.694E-04  0.523E-04
  -1.199  0.130E-02  0.123E-04  0.581E-03  0.586E-03  0.670E-04  0.504E-04
  -1.189  0.126E-02  0.119E-04  0.569E-03  0.570E-03  0.648E-04  0.486E-04
  -1.179  0.123E-02  0.115E-04  0.557E-03  0.554E-03  0.625E-04  0.468E-04
  -1.169  0.120E-02  0.111E-04  0.544E-03  0.539E-03  0.603E-04  0.449E-04
  -1.159  0.117E-02  0.107E-04  0.531E-03  0.523E-03  0.581E-04  0.432E-04
  -1.149  0.113E-02  0.103E-04  0.518E-03  0.508E-03  0.560E-04  0.414E-04
  -1.139  0.110E-02  0.992E-05  0.504E-03  0.492E-03  0.539E-04  0.397E-04
  -1.129  0.106E-02  0.950E-05  0.489E-03  0.476E-03  0.518E-04  0.381E-04
  -1.119  0.103E-02  0.909E-05  0.475E-03  0.461E-03  0.498E-04  0.364E-04
  -1.109  0.996E-03  0.867E-05  0.460E-03  0.445E-03  0.478E-04  0.348E-04
  -1.099  0.973E-03  0.833E-05  0.450E-03  0.435E-03  0.465E-04  0.337E-04
  -1.089  0.965E-03  0.808E-05  0.446E-03  0.432E-03  0.460E-04  0.332E-04
  -1.079  0.957E-03  0.783E-05  0.441E-03  0.430E-03  0.456E-04  0.326E-04
  -1.069  0.950E-03  0.759E-05  0.436E-03  0.428E-03  0.453E-04  0.321E-04
  -1.059  0.943E-03  0.736E-05  0.431E-03  0.427E-03  0.450E-04  0.315E-04
  -1.049  0.935E-03  0.713E-05  0.426E-03  0.427E-03  0.449E-04  0.310E-04
  -1.039  0.928E-03  0.690E-05  0.419E-03  0.427E-03  0.448E-04  0.304E-04
  -1.029  0.921E-03  0.668E-05  0.413E-03  0.427E-03  0.448E-04  0.299E-04
  -1.019  0.915E-03  0.647E-05  0.406E-03  0.428E-03  0.450E-04  0.293E-04
  -1.009  0.908E-03  0.626E-05  0.398E-03  0.430E-03  0.451E-04  0.288E-04
  -0.999  0.902E-03  0.605E-05  0.391E-03  0.432E-03  0.454E-04  0.282E-04
  -0.989  0.896E-03  0.585E-05  0.382E-03  0.435E-03  0.458E-04  0.276E-04
  -0.979  0.890E-03  0.565E-05  0.373E-03  0.438E-03  0.462E-04  0.271E-04
  -0.969  0.884E-03  0.546E-05  0.364E-03  0.441E-03  0.467E-04  0.265E-04
  -0.959  0.879E-03  0.528E-05  0.355E-03  0.446E-03  0.473E-04  0.259E-04
  -0.949  0.696E-03  0.467E-05  0.317E-03  0.321E-03  0.324E-04  0.206E-04
  -0.939  0.637E-03  0.442E-05  0.290E-03  0.293E-03  0.299E-04  0.189E-04
  -0.929  0.580E-03  0.417E-05  0.264E-03  0.267E-03  0.274E-04  0.174E-04
  -0.919  0.527E-03  0.392E-05  0.240E-03  0.242E-03  0.251E-04  0.158E-04
  -0.909  0.475E-03  0.368E-05  0.216E-03  0.218E-03  0.229E-04  0.144E-04
  -0.899  0.427E-03  0.344E-05  0.194E-03  0.196E-03  0.208E-04  0.130E-04
  -0.889  0.381E-03  0.321E-05  0.173E-03  0.175E-03  0.188E-04  0.117E-04
  -0.879  0.338E-03  0.298E-05  0.153E-03  0.154E-03  0.169E-04  0.105E-04
  -0.869  0.297E-03  0.275E-05  0.134E-03  0.136E-03  0.151E-04  0.930E-05
  -0.859  0.259E-03  0.254E-05  0.117E-03  0.118E-03  0.134E-04  0.819E-05
  -0.849  0.223E-03  0.232E-05  0.101E-03  0.102E-03  0.118E-04  0.716E-05
  -0.839  0.191E-03  0.211E-05  0.856E-04  0.865E-04  0.103E-04  0.619E-05
  -0.829  0.160E-03  0.191E-05  0.718E-04  0.725E-04  0.886E-05  0.530E-05
  -0.819  0.133E-03  0.171E-05  0.592E-04  0.598E-04  0.755E-05  0.447E-05
  -0.809  0.108E-03  0.152E-05  0.478E-04  0.483E-04  0.635E-05  0.371E-05
  -0.799  0.853E-04  0.133E-05  0.376E-04  0.380E-04  0.524E-05  0.302E-05
  -0.789  0.655E-04  0.114E-05  0.287E-04  0.290E-04  0.423E-05  0.240E-05
  -0.779  0.483E-04  0.961E-06  0.210E-04  0.212E-04  0.332E-05  0.185E-05
  -0.769  0.337E-04  0.786E-06  0.144E-04  0.146E-04  0.251E-05  0.137E-05
  -0.759  0.217E-04  0.615E-06  0.913E-05  0.922E-05  0.180E-05  0.953E-06
  -0.749  0.124E-04  0.450E-06  0.503E-05  0.508E-05  0.119E-05  0.608E-06
  -0.739  0.561E-05  0.289E-06  0.214E-05  0.216E-05  0.685E-06  0.332E-06
  -0.729  0.147E-05  0.132E-06  0.469E-06  0.473E-06  0.275E-06  0.125E-06
  -0.719  0.000E+00  0.000E+00  0.000E+00  0.000E+00  0.000E+00  0.000E+00
  -0.709  0.000E+00  0.000E+00  0.000E+00  0.000E+00  0.000E+00  0.000E+00
  -0.699  0.000E+00  0.000E+00  0.000E+00  0.000E+00  0.000E+00  0.000E+00
  -0.689  0.000E+00  0.000E+00  0.000E+00  0.000E+00  0.000E+00  0.000E+00
  -0.679  0.000E+00  0.000E+00  0.000E+00  0.000E+00  0.000E+00  0.000E+00
  -0.669  0.000E+00  0.000E+00  0.000E+00  0.000E+00  0.000E+00  0.000E+00
  -0.659  0.000E+00  0.000E+00  0.000E+00  0.000E+00  0.000E+00  0.000E+00
  -0.649  0.000E+00  0.000E+00  0.000E+00  0.000E+00  0.000E+00  0.000E+00
  -0.639  0.000E+00  0.000E+00  0.000E+00  0.000E+00  0.000E+00  0.000E+00
  -0.629  0.000E+00  0.000E+00  0.000E+00  0.000E+00  0.000E+00  0.000E+00
  -0.619  0.139E-04  0.256E-06  0.101E-04  0.336E-05  0.517E-07  0.152E-06
  -0.609  0.833E-04  0.150E-05  0.604E-04  0.201E-04  0.353E-06  0.928E-06
  -0.599  0.151E-03  0.264E-05  0.109E-03  0.364E-04  0.717E-06  0.171E-05
  -0.589  0.248E-03  0.368E-05  0.163E-03  0.739E-04  0.351E-05  0.330E-05
  -0.579  0.392E-03  0.465E-05  0.227E-03  0.144E-03  0.998E-05  0.610E-05
  -0.569  0.545E-03  0.187E-04  0.289E-03  0.212E-03  0.163E-04  0.888E-05
  -0.559  0.696E-03  0.352E-04  0.349E-03  0.278E-03  0.225E-04  0.116E-04
  -0.549  0.841E-03  0.511E-04  0.406E-03  0.341E-03  0.286E-04  0.144E-04
  -0.539  0.982E-03  0.665E-04  0.462E-03  0.402E-03  0.346E-04  0.171E-04
  -0.529  0.112E-02  0.812E-04  0.515E-03  0.461E-03  0.405E-04  0.198E-04
  -0.519  0.125E-02  0.953E-04  0.567E-03  0.517E-03  0.463E-04  0.225E-04
  -0.509  0.137E-02  0.109E-03  0.616E-03  0.572E-03  0.520E-04  0.252E-04
  -0.499  0.149E-02  0.122E-03  0.663E-03  0.624E-03  0.576E-04  0.278E-04
  -0.489  0.161E-02  0.134E-03  0.708E-03  0.673E-03  0.630E-04  0.305E-04
  -0.479  0.172E-02  0.146E-03  0.751E-03  0.721E-03  0.684E-04  0.331E-04
  -0.469  0.182E-02  0.157E-03  0.791E-03  0.766E-03  0.736E-04  0.357E-04
  -0.459  0.192E-02  0.167E-03  0.830E-03  0.809E-03  0.788E-04  0.382E-04
  -0.449  0.202E-02  0.177E-03  0.867E-03  0.850E-03  0.838E-04  0.408E-04
  -0.439  0.211E-02  0.187E-03  0.901E-03  0.888E-03  0.888E-04  0.433E-04
  -0.429  0.219E-02  0.195E-03  0.933E-03  0.924E-03  0.936E-04  0.459E-04
  -0.419  0.418E-02  0.218E-03  0.226E-02  0.148E-02  0.141E-03  0.868E-04
  -0.409  0.430E-02  0.226E-03  0.224E-02  0.157E-02  0.156E-03  0.966E-04
  -0.399  0.471E-02  0.235E-03  0.232E-02  0.185E-02  0.188E-03  0.114E-03
  -0.389  0.487E-02  0.243E-03  0.235E-02  0.195E-02  0.201E-03  0.124E-03
  -0.379  0.502E-02  0.251E-03  0.238E-02  0.204E-02  0.213E-03  0.134E-03
  -0.369  0.516E-02  0.258E-03  0.243E-02  0.211E-02  0.223E-03  0.144E-03
  -0.359  0.607E-02  0.270E-03  0.290E-02  0.246E-02  0.263E-03  0.178E-03
  -0.349  0.127E-01  0.296E-03  0.691E-02  0.466E-02  0.469E-03  0.413E-03
  -0.339  0.228E-01  0.333E-03  0.131E-01  0.783E-02  0.757E-03  0.777E-03
  -0.329  0.325E-01  0.382E-03  0.190E-01  0.109E-01  0.105E-02  0.115E-02
  -0.319  0.167E-01  0.337E-03  0.951E-02  0.573E-02  0.564E-03  0.570E-03
  -0.309  0.162E-01  0.340E-03  0.934E-02  0.545E-02  0.514E-03  0.535E-03
  -0.299  0.156E-01  0.341E-03  0.910E-02  0.516E-02  0.461E-03  0.491E-03
  -0.289  0.962E-02  0.301E-03  0.528E-02  0.349E-02  0.269E-03  0.275E-03
  -0.279  0.273E-02  0.275E-03  0.751E-03  0.147E-02  0.143E-03  0.854E-04
  -0.269  0.281E-02  0.278E-03  0.783E-03  0.151E-02  0.145E-03  0.896E-04
  -0.259  0.104E-01  0.340E-03  0.312E-02  0.612E-02  0.488E-03  0.323E-03
  -0.249  0.112E-01  0.353E-03  0.329E-02  0.678E-02  0.476E-03  0.347E-03
  -0.239  0.128E-01  0.373E-03  0.362E-02  0.793E-02  0.467E-03  0.387E-03
  -0.229  0.271E-01  0.513E-03  0.769E-02  0.174E-01  0.695E-03  0.744E-03
  -0.219  0.447E-03  0.255E-03  0.507E-04  0.804E-04  0.388E-04  0.219E-04
  -0.209  0.455E-03  0.253E-03  0.535E-04  0.849E-04  0.410E-04  0.232E-04
  -0.199  0.463E-03  0.250E-03  0.565E-04  0.896E-04  0.432E-04  0.244E-04
  -0.189  0.471E-03  0.246E-03  0.595E-04  0.944E-04  0.455E-04  0.257E-04
  -0.179  0.479E-03  0.242E-03  0.625E-04  0.993E-04  0.479E-04  0.271E-04
  -0.169  0.487E-03  0.238E-03  0.657E-04  0.104E-03  0.504E-04  0.284E-04
  -0.159  0.494E-03  0.233E-03  0.689E-04  0.110E-03  0.528E-04  0.298E-04
  -0.149  0.501E-03  0.227E-03  0.722E-04  0.115E-03  0.554E-04  0.312E-04
  -0.139  0.508E-03  0.221E-03  0.756E-04  0.120E-03  0.580E-04  0.327E-04
  -0.129  0.514E-03  0.214E-03  0.791E-04  0.126E-03  0.607E-04  0.342E-04
  -0.119  0.521E-03  0.207E-03  0.827E-04  0.131E-03  0.634E-04  0.357E-04
  -0.109  0.146E-02  0.427E-03  0.246E-03  0.417E-03  0.178E-03  0.193E-03
  -0.099  0.295E-02  0.966E-03  0.445E-03  0.759E-03  0.347E-03  0.435E-03
  -0.089  0.569E-02  0.183E-02  0.940E-03  0.145E-02  0.596E-03  0.870E-03
  -0.079  0.115E-01  0.307E-02  0.223E-02  0.354E-02  0.999E-03  0.163E-02
  -0.069  0.339E-01  0.837E-02  0.700E-02  0.118E-01  0.325E-02  0.354E-02
  -0.059  0.663E-01  0.105E-01  0.159E-01  0.271E-01  0.564E-02  0.724E-02
  -0.049  0.212E-01  0.522E-02  0.390E-02  0.736E-02  0.182E-02  0.294E-02
  -0.039  0.182E-01  0.432E-02  0.315E-02  0.668E-02  0.151E-02  0.259E-02
  -0.029  0.173E-01  0.352E-02  0.351E-02  0.739E-02  0.119E-02  0.170E-02
  -0.019  0.210E-01  0.311E-02  0.472E-02  0.987E-02  0.147E-02  0.188E-02
  -0.009  0.176E-01  0.234E-02  0.400E-02  0.823E-02  0.128E-02  0.171E-02
   0.001  0.142E-01  0.145E-02  0.339E-02  0.690E-02  0.994E-03  0.145E-02
   0.011  0.120E-01  0.751E-03  0.303E-02  0.609E-02  0.854E-03  0.129E-02
   0.021  0.107E-01  0.467E-03  0.281E-02  0.553E-02  0.798E-03  0.109E-02
   0.031  0.957E-02  0.427E-03  0.251E-02  0.496E-02  0.826E-03  0.844E-03
   0.041  0.960E-02  0.389E-03  0.245E-02  0.505E-02  0.960E-03  0.748E-03
   0.051  0.115E-01  0.403E-03  0.302E-02  0.621E-02  0.114E-02  0.704E-03
   0.061  0.182E-01  0.477E-03  0.492E-02  0.102E-01  0.180E-02  0.828E-03
   0.071  0.138E-01  0.499E-03  0.364E-02  0.710E-02  0.176E-02  0.771E-03
   0.081  0.253E-02  0.237E-03  0.552E-03  0.111E-02  0.380E-03  0.255E-03
   0.091  0.517E-03  0.205E-03  0.250E-04  0.485E-04  0.855E-04  0.153E-03
   0.101  0.540E-03  0.218E-03  0.259E-04  0.494E-04  0.897E-04  0.156E-03
   0.111  0.562E-03  0.231E-03  0.268E-04  0.503E-04  0.940E-04  0.160E-03
   0.121  0.585E-03  0.244E-03  0.278E-04  0.512E-04  0.985E-04  0.164E-03
   0.131  0.609E-03  0.256E-03  0.287E-04  0.521E-04  0.103E-03  0.168E-03
   0.141  0.632E-03  0.269E-03  0.297E-04  0.530E-04  0.108E-03  0.172E-03
   0.151  0.656E-03  0.282E-03  0.306E-04  0.540E-04  0.113E-03  0.177E-03
   0.161  0.680E-03  0.294E-03  0.316E-04  0.549E-04  0.118E-03  0.181E-03
   0.171  0.704E-03  0.307E-03  0.326E-04  0.559E-04  0.123E-03  0.186E-03
   0.181  0.728E-03  0.319E-03  0.335E-04  0.568E-04  0.129E-03  0.190E-03
   0.191  0.753E-03  0.331E-03  0.345E-04  0.578E-04  0.134E-03  0.195E-03
   0.201  0.778E-03  0.343E-03  0.355E-04  0.588E-04  0.140E-03  0.200E-03
   0.211  0.803E-03  0.355E-03  0.365E-04  0.598E-04  0.146E-03  0.205E-03
   0.221  0.828E-03  0.367E-03  0.375E-04  0.608E-04  0.152E-03  0.211E-03
   0.231  0.854E-03  0.379E-03  0.386E-04  0.618E-04  0.158E-03  0.216E-03
   0.241  0.879E-03  0.391E-03  0.396E-04  0.628E-04  0.164E-03  0.222E-03
   0.251  0.905E-03  0.403E-03  0.406E-04  0.638E-04  0.171E-03  0.227E-03
   0.261  0.931E-03  0.415E-03  0.417E-04  0.648E-04  0.177E-03  0.233E-03
   0.271  0.958E-03  0.426E-03  0.427E-04  0.659E-04  0.184E-03  0.239E-03
   0.281  0.985E-03  0.438E-03  0.438E-04  0.670E-04  0.191E-03  0.245E-03
   0.291  0.101E-02  0.449E-03  0.448E-04  0.680E-04  0.198E-03  0.251E-03
   0.301  0.104E-02  0.461E-03  0.459E-04  0.691E-04  0.205E-03  0.258E-03
   0.311  0.107E-02  0.472E-03  0.470E-04  0.702E-04  0.212E-03  0.264E-03
   0.321  0.109E-02  0.483E-03  0.481E-04  0.713E-04  0.220E-03  0.271E-03
   0.331  0.112E-02  0.495E-03  0.492E-04  0.724E-04  0.227E-03  0.278E-03
   0.341  0.115E-02  0.506E-03  0.503E-04  0.735E-04  0.235E-03  0.284E-03
   0.351  0.118E-02  0.517E-03  0.514E-04  0.746E-04  0.243E-03  0.291E-03
   0.361  0.121E-02  0.528E-03  0.525E-04  0.758E-04  0.251E-03  0.299E-03
   0.371  0.123E-02  0.539E-03  0.537E-04  0.769E-04  0.260E-03  0.306E-03
   0.381  0.252E-02  0.616E-03  0.123E-03  0.192E-03  0.806E-03  0.785E-03
   0.391  0.769E-02  0.102E-02  0.399E-03  0.620E-03  0.293E-02  0.272E-02
   0.401  0.120E-01  0.159E-02  0.616E-03  0.907E-03  0.455E-02  0.431E-02
   0.411  0.450E-02  0.901E-03  0.229E-03  0.329E-03  0.153E-02  0.151E-02
   0.421  0.482E-02  0.932E-03  0.251E-03  0.364E-03  0.165E-02  0.162E-02
   0.431  0.513E-02  0.974E-03  0.274E-03  0.400E-03  0.176E-02  0.173E-02
   0.441  0.571E-02  0.122E-02  0.350E-03  0.455E-03  0.186E-02  0.183E-02
   0.451  0.629E-02  0.146E-02  0.427E-03  0.514E-03  0.196E-02  0.194E-02
   0.461  0.714E-02  0.173E-02  0.632E-03  0.637E-03  0.208E-02  0.206E-02
   0.471  0.115E-01  0.412E-02  0.110E-02  0.991E-03  0.265E-02  0.262E-02
   0.481  0.155E-01  0.601E-02  0.164E-02  0.140E-02  0.328E-02  0.320E-02
   0.491  0.185E-01  0.687E-02  0.220E-02  0.182E-02  0.386E-02  0.372E-02
   0.501  0.203E-01  0.670E-02  0.279E-02  0.226E-02  0.441E-02  0.417E-02
   0.511  0.211E-01  0.550E-02  0.340E-02  0.271E-02  0.491E-02  0.455E-02
   0.521  0.197E-01  0.424E-02  0.230E-02  0.210E-02  0.550E-02  0.553E-02
   0.531  0.223E-01  0.395E-02  0.236E-02  0.219E-02  0.685E-02  0.693E-02
   0.541  0.260E-01  0.412E-02  0.246E-02  0.232E-02  0.845E-02  0.860E-02
   0.551  0.261E-01  0.436E-02  0.237E-02  0.218E-02  0.856E-02  0.867E-02
   0.561  0.192E-01  0.405E-02  0.186E-02  0.168E-02  0.573E-02  0.586E-02
   0.571  0.110E-01  0.354E-02  0.127E-02  0.121E-02  0.232E-02  0.264E-02
   0.581  0.114E-01  0.377E-02  0.137E-02  0.126E-02  0.232E-02  0.268E-02
   0.591  0.119E-01  0.397E-02  0.150E-02  0.131E-02  0.235E-02  0.277E-02
   0.601  0.131E-01  0.454E-02  0.167E-02  0.140E-02  0.251E-02  0.301E-02
   0.611  0.142E-01  0.495E-02  0.185E-02  0.148E-02  0.267E-02  0.328E-02
   0.621  0.146E-01  0.494E-02  0.194E-02  0.149E-02  0.274E-02  0.344E-02
   0.631  0.135E-01  0.427E-02  0.174E-02  0.130E-02  0.274E-02  0.345E-02
   0.641  0.139E-01  0.402E-02  0.189E-02  0.131E-02  0.291E-02  0.375E-02
   0.651  0.154E-01  0.389E-02  0.207E-02  0.136E-02  0.334E-02  0.472E-02
   0.661  0.164E-01  0.370E-02  0.210E-02  0.134E-02  0.371E-02  0.550E-02
   0.671  0.173E-01  0.356E-02  0.213E-02  0.132E-02  0.412E-02  0.621E-02
   0.681  0.183E-01  0.346E-02  0.216E-02  0.131E-02  0.455E-02  0.686E-02
   0.691  0.194E-01  0.341E-02  0.219E-02  0.131E-02  0.502E-02  0.744E-02
   0.701  0.206E-01  0.345E-02  0.222E-02  0.131E-02  0.565E-02  0.800E-02
   0.711  0.225E-01  0.365E-02  0.226E-02  0.131E-02  0.664E-02  0.863E-02
   0.721  0.244E-01  0.390E-02  0.230E-02  0.132E-02  0.764E-02  0.919E-02
   0.731  0.262E-01  0.419E-02  0.234E-02  0.134E-02  0.866E-02  0.969E-02
   0.741  0.281E-01  0.452E-02  0.238E-02  0.136E-02  0.970E-02  0.101E-01
   0.751  0.355E-01  0.511E-02  0.357E-02  0.194E-02  0.122E-01  0.126E-01
   0.761  0.354E-01  0.555E-02  0.337E-02  0.183E-02  0.124E-01  0.123E-01
   0.771  0.357E-01  0.605E-02  0.315E-02  0.173E-02  0.128E-01  0.120E-01
   0.781  0.364E-01  0.663E-02  0.291E-02  0.163E-02  0.133E-01  0.119E-01
   0.791  0.370E-01  0.720E-02  0.263E-02  0.153E-02  0.139E-01  0.117E-01
   0.801  0.352E-01  0.721E-02  0.215E-02  0.133E-02  0.136E-01  0.109E-01
   0.811  0.339E-01  0.727E-02  0.166E-02  0.114E-02  0.134E-01  0.104E-01
   0.821  0.335E-01  0.736E-02  0.164E-02  0.115E-02  0.133E-01  0.101E-01
   0.831  0.363E-01  0.834E-02  0.203E-02  0.154E-02  0.138E-01  0.106E-01
   0.841  0.348E-01  0.822E-02  0.189E-02  0.140E-02  0.132E-01  0.100E-01
   0.851  0.332E-01  0.809E-02  0.174E-02  0.128E-02  0.126E-01  0.948E-02
   0.861  0.318E-01  0.795E-02  0.158E-02  0.120E-02  0.120E-01  0.901E-02
   0.871  0.492E-01  0.117E-01  0.205E-02  0.147E-02  0.182E-01  0.158E-01
   0.881  0.509E-01  0.128E-01  0.255E-02  0.183E-02  0.176E-01  0.161E-01
   0.891  0.497E-01  0.127E-01  0.316E-02  0.209E-02  0.165E-01  0.152E-01
   0.901  0.445E-01  0.110E-01  0.271E-02  0.178E-02  0.156E-01  0.134E-01
   0.911  0.490E-01  0.134E-01  0.313E-02  0.205E-02  0.167E-01  0.138E-01
   0.921  0.483E-01  0.143E-01  0.316E-02  0.216E-02  0.160E-01  0.127E-01
   0.931  0.462E-01  0.146E-01  0.301E-02  0.212E-02  0.148E-01  0.117E-01
   0.941  0.430E-01  0.145E-01  0.274E-02  0.196E-02  0.132E-01  0.105E-01
   0.951  0.397E-01  0.144E-01  0.246E-02  0.180E-02  0.117E-01  0.941E-02
   0.961  0.365E-01  0.141E-01  0.219E-02  0.165E-02  0.102E-01  0.829E-02
   0.971  0.266E-01  0.966E-02  0.159E-02  0.106E-02  0.812E-02  0.613E-02
   0.981  0.242E-01  0.884E-02  0.142E-02  0.938E-03  0.756E-02  0.549E-02
   0.991  0.216E-01  0.722E-02  0.113E-02  0.730E-03  0.752E-02  0.503E-02
   1.001  0.266E-01  0.839E-02  0.135E-02  0.812E-03  0.949E-02  0.660E-02
   1.011  0.332E-01  0.100E-01  0.159E-02  0.913E-03  0.120E-01  0.861E-02
   1.021  0.412E-01  0.121E-01  0.184E-02  0.103E-02  0.151E-01  0.111E-01
   1.031  0.174E+00  0.441E-01  0.486E-02  0.291E-02  0.765E-01  0.460E-01
   1.041  0.146E-01  0.526E-02  0.734E-03  0.483E-03  0.439E-02  0.372E-02
   1.051  0.328E-01  0.890E-02  0.247E-02  0.226E-02  0.825E-02  0.110E-01
   1.061  0.319E-01  0.809E-02  0.207E-02  0.185E-02  0.857E-02  0.114E-01
   1.071  0.299E-01  0.723E-02  0.174E-02  0.150E-02  0.837E-02  0.110E-01
   1.081  0.266E-01  0.633E-02  0.147E-02  0.122E-02  0.763E-02  0.997E-02
   1.091  0.228E-01  0.543E-02  0.127E-02  0.994E-03  0.658E-02  0.852E-02
   1.101  0.198E-01  0.462E-02  0.107E-02  0.775E-03  0.582E-02  0.753E-02
   1.111  0.606E-01  0.171E-01  0.570E-02  0.577E-02  0.143E-01  0.177E-01
   1.121  0.244E-01  0.592E-02  0.132E-02  0.972E-03  0.766E-02  0.852E-02
   1.131  0.225E-01  0.539E-02  0.130E-02  0.922E-03  0.697E-02  0.793E-02
   1.141  0.227E-01  0.500E-02  0.159E-02  0.984E-03  0.671E-02  0.845E-02
   1.151  0.235E-01  0.470E-02  0.192E-02  0.108E-02  0.663E-02  0.920E-02
   1.161  0.246E-01  0.445E-02  0.227E-02  0.119E-02  0.666E-02  0.100E-01
   1.171  0.266E-01  0.445E-02  0.268E-02  0.134E-02  0.691E-02  0.112E-01
   1.181  0.280E-01  0.450E-02  0.300E-02  0.150E-02  0.708E-02  0.119E-01
   1.191  0.257E-01  0.420E-02  0.289E-02  0.155E-02  0.634E-02  0.107E-01
   1.201  0.241E-01  0.412E-02  0.289E-02  0.166E-02  0.579E-02  0.966E-02
   1.211  0.249E-01  0.566E-02  0.301E-02  0.183E-02  0.544E-02  0.894E-02
   1.221  0.261E-01  0.732E-02  0.317E-02  0.202E-02  0.522E-02  0.835E-02
   1.231  0.277E-01  0.906E-02  0.337E-02  0.217E-02  0.515E-02  0.791E-02
   1.241  0.256E-01  0.789E-02  0.353E-02  0.229E-02  0.495E-02  0.698E-02
   1.251  0.269E-01  0.866E-02  0.388E-02  0.253E-02  0.518E-02  0.661E-02
   1.261  0.302E-01  0.101E-01  0.476E-02  0.297E-02  0.573E-02  0.662E-02
   1.271  0.350E-01  0.122E-01  0.625E-02  0.344E-02  0.614E-02  0.690E-02
   1.281  0.404E-01  0.157E-01  0.750E-02  0.362E-02  0.604E-02  0.752E-02
   1.291  0.287E-01  0.108E-01  0.426E-02  0.218E-02  0.526E-02  0.617E-02
   1.301  0.343E-01  0.138E-01  0.566E-02  0.276E-02  0.550E-02  0.656E-02
   1.311  0.292E-01  0.125E-01  0.412E-02  0.224E-02  0.461E-02  0.567E-02
   1.321  0.257E-01  0.116E-01  0.289E-02  0.180E-02  0.417E-02  0.529E-02
   1.331  0.183E-01  0.709E-02  0.168E-02  0.128E-02  0.374E-02  0.450E-02
   1.341  0.181E-01  0.706E-02  0.144E-02  0.118E-02  0.385E-02  0.458E-02
   1.351  0.234E-01  0.798E-02  0.218E-02  0.193E-02  0.492E-02  0.637E-02
   1.361  0.301E-01  0.902E-02  0.296E-02  0.211E-02  0.719E-02  0.882E-02
   1.371  0.302E-01  0.852E-02  0.274E-02  0.200E-02  0.796E-02  0.894E-02
   1.381  0.288E-01  0.784E-02  0.230E-02  0.175E-02  0.823E-02  0.874E-02
   1.391  0.283E-01  0.745E-02  0.213E-02  0.169E-02  0.847E-02  0.858E-02
   1.401  0.276E-01  0.704E-02  0.210E-02  0.167E-02  0.846E-02  0.829E-02
   1.411  0.262E-01  0.653E-02  0.206E-02  0.162E-02  0.818E-02  0.781E-02
   1.421  0.259E-01  0.613E-02  0.207E-02  0.161E-02  0.839E-02  0.772E-02
   1.431  0.384E-01  0.824E-02  0.253E-02  0.206E-02  0.134E-01  0.122E-01
   1.441  0.343E-01  0.795E-02  0.242E-02  0.179E-02  0.120E-01  0.101E-01
   1.451  0.294E-01  0.702E-02  0.229E-02  0.155E-02  0.103E-01  0.828E-02
   1.461  0.239E-01  0.545E-02  0.213E-02  0.137E-02  0.831E-02  0.662E-02
   1.471  0.184E-01  0.344E-02  0.199E-02  0.131E-02  0.634E-02  0.530E-02
   1.481  0.176E-01  0.308E-02  0.200E-02  0.136E-02  0.601E-02  0.519E-02
   1.491  0.184E-01  0.323E-02  0.206E-02  0.143E-02  0.626E-02  0.545E-02
   1.501  0.292E-01  0.389E-02  0.260E-02  0.256E-02  0.115E-01  0.859E-02
   1.511  0.506E-01  0.601E-02  0.330E-02  0.313E-02  0.225E-01  0.156E-01
   1.521  0.598E-01  0.706E-02  0.506E-02  0.455E-02  0.242E-01  0.189E-01
   1.531  0.567E-01  0.701E-02  0.788E-02  0.681E-02  0.167E-01  0.183E-01
   1.541  0.318E-01  0.508E-02  0.218E-02  0.233E-02  0.110E-01  0.112E-01
   1.551  0.326E-01  0.543E-02  0.208E-02  0.226E-02  0.112E-01  0.117E-01
   1.561  0.442E-01  0.820E-02  0.535E-02  0.378E-02  0.125E-01  0.143E-01
   1.571  0.404E-01  0.733E-02  0.361E-02  0.299E-02  0.126E-01  0.138E-01
   1.581  0.388E-01  0.721E-02  0.287E-02  0.267E-02  0.124E-01  0.136E-01
   1.591  0.402E-01  0.774E-02  0.279E-02  0.268E-02  0.130E-01  0.140E-01
   1.601  0.420E-01  0.840E-02  0.274E-02  0.270E-02  0.137E-01  0.144E-01
   1.611  0.438E-01  0.907E-02  0.270E-02  0.273E-02  0.146E-01  0.147E-01
   1.621  0.305E-01  0.686E-02  0.226E-02  0.213E-02  0.955E-02  0.969E-02
   1.631  0.301E-01  0.688E-02  0.216E-02  0.211E-02  0.934E-02  0.957E-02
   1.641  0.298E-01  0.690E-02  0.206E-02  0.209E-02  0.923E-02  0.954E-02
   1.651  0.298E-01  0.693E-02  0.197E-02  0.207E-02  0.923E-02  0.958E-02
   1.661  0.300E-01  0.696E-02  0.190E-02  0.208E-02  0.932E-02  0.971E-02
   1.671  0.296E-01  0.697E-02  0.184E-02  0.207E-02  0.928E-02  0.946E-02
   1.681  0.290E-01  0.701E-02  0.178E-02  0.204E-02  0.914E-02  0.908E-02
   1.691  0.285E-01  0.712E-02  0.171E-02  0.198E-02  0.896E-02  0.872E-02
   1.701  0.274E-01  0.727E-02  0.162E-02  0.186E-02  0.846E-02  0.819E-02
   1.711  0.261E-01  0.740E-02  0.153E-02  0.172E-02  0.787E-02  0.763E-02
   1.721  0.250E-01  0.750E-02  0.144E-02  0.157E-02  0.731E-02  0.714E-02
   1.731  0.160E-01  0.457E-02  0.945E-03  0.110E-02  0.464E-02  0.470E-02
   1.741  0.139E-01  0.428E-02  0.819E-03  0.942E-03  0.391E-02  0.396E-02
   1.751  0.121E-01  0.400E-02  0.699E-03  0.785E-03  0.326E-02  0.331E-02
   1.761  0.104E-01  0.374E-02  0.587E-03  0.633E-03  0.271E-02  0.275E-02
   1.771  0.897E-02  0.349E-02  0.482E-03  0.486E-03  0.224E-02  0.227E-02
   1.781  0.148E-01  0.874E-02  0.893E-03  0.737E-03  0.219E-02  0.224E-02
   1.791  0.121E-01  0.630E-02  0.675E-03  0.565E-03  0.212E-02  0.240E-02
   1.801  0.948E-02  0.433E-02  0.496E-03  0.420E-03  0.192E-02  0.232E-02
   1.811  0.707E-02  0.282E-02  0.356E-03  0.304E-03  0.160E-02  0.199E-02
   1.821  0.481E-02  0.178E-02  0.255E-03  0.216E-03  0.115E-02  0.140E-02
   1.831  0.270E-02  0.121E-02  0.194E-03  0.157E-03  0.572E-03  0.573E-03
   1.841  0.196E-02  0.915E-03  0.163E-03  0.124E-03  0.386E-03  0.370E-03
   1.851  0.142E-02  0.658E-03  0.137E-03  0.963E-04  0.269E-03  0.260E-03
   1.861  0.102E-02  0.454E-03  0.114E-03  0.744E-04  0.188E-03  0.190E-03
   1.871  0.757E-03  0.337E-03  0.933E-04  0.560E-04  0.129E-03  0.142E-03
   1.881  0.526E-03  0.234E-03  0.718E-04  0.396E-04  0.815E-04  0.996E-04
   1.891  0.326E-03  0.145E-03  0.497E-04  0.251E-04  0.443E-04  0.624E-04
   1.901  0.158E-03  0.701E-04  0.273E-04  0.125E-04  0.177E-04  0.307E-04
   1.911  0.221E-04  0.977E-05  0.436E-05  0.180E-05  0.180E-05  0.435E-05
   1.921  0.000E+00  0.000E+00  0.000E+00  0.000E+00  0.000E+00  0.000E+00
