# E (eV)   ldos(E)   pdos(E)   
 -15.919  0.000E+00  0.000E+00
 -15.909  0.208E-02  0.208E-02
 -15.899  0.409E-02  0.409E-02
 -15.889  0.295E-02  0.295E-02
 -15.879  0.306E-02  0.306E-02
 -15.869  0.318E-02  0.318E-02
 -15.859  0.328E-02  0.328E-02
 -15.849  0.339E-02  0.339E-02
 -15.839  0.348E-02  0.348E-02
 -15.829  0.349E-02  0.349E-02
 -15.819  0.325E-02  0.325E-02
 -15.809  0.303E-02  0.303E-02
 -15.799  0.289E-02  0.289E-02
 -15.789  0.292E-02  0.292E-02
 -15.779  0.295E-02  0.295E-02
 -15.769  0.297E-02  0.297E-02
 -15.759  0.299E-02  0.299E-02
 -15.749  0.301E-02  0.301E-02
 -15.739  0.303E-02  0.303E-02
 -15.729  0.305E-02  0.305E-02
 -15.719  0.306E-02  0.306E-02
 -15.709  0.601E-02  0.601E-02
 -15.699  0.472E-02  0.472E-02
 -15.689  0.347E-02  0.347E-02
 -15.679  0.226E-02  0.226E-02
 -15.669  0.121E-02  0.121E-02
 -15.659  0.103E-02  0.103E-02
 -15.649  0.855E-03  0.855E-03
 -15.639  0.782E-03  0.782E-03
 -15.629  0.850E-03  0.850E-03
 -15.619  0.916E-03  0.916E-03
 -15.609  0.981E-03  0.981E-03
 -15.599  0.104E-02  0.104E-02
 -15.589  0.119E-02  0.119E-02
 -15.579  0.139E-02  0.139E-02
 -15.569  0.158E-02  0.158E-02
 -15.559  0.331E-02  0.331E-02
 -15.549  0.765E-02  0.765E-02
 -15.539  0.163E-02  0.163E-02
 -15.529  0.164E-02  0.164E-02
 -15.519  0.164E-02  0.164E-02
 -15.509  0.164E-02  0.164E-02
 -15.499  0.164E-02  0.164E-02
 -15.489  0.164E-02  0.164E-02
 -15.479  0.165E-02  0.165E-02
 -15.469  0.165E-02  0.165E-02
 -15.459  0.165E-02  0.165E-02
 -15.449  0.165E-02  0.165E-02
 -15.439  0.165E-02  0.165E-02
 -15.429  0.165E-02  0.165E-02
 -15.419  0.166E-02  0.166E-02
 -15.409  0.166E-02  0.166E-02
 -15.399  0.166E-02  0.166E-02
 -15.389  0.166E-02  0.166E-02
 -15.379  0.166E-02  0.166E-02
 -15.369  0.166E-02  0.166E-02
 -15.359  0.224E-02  0.224E-02
 -15.349  0.214E-02  0.214E-02
 -15.339  0.204E-02  0.204E-02
 -15.329  0.194E-02  0.194E-02
 -15.319  0.186E-02  0.186E-02
 -15.309  0.179E-02  0.179E-02
 -15.299  0.173E-02  0.173E-02
 -15.289  0.174E-02  0.174E-02
 -15.279  0.176E-02  0.176E-02
 -15.269  0.179E-02  0.179E-02
 -15.259  0.181E-02  0.181E-02
 -15.249  0.183E-02  0.183E-02
 -15.239  0.186E-02  0.186E-02
 -15.229  0.188E-02  0.188E-02
 -15.219  0.191E-02  0.191E-02
 -15.209  0.193E-02  0.193E-02
 -15.199  0.165E-02  0.165E-02
 -15.189  0.166E-02  0.166E-02
 -15.179  0.168E-02  0.168E-02
 -15.169  0.169E-02  0.169E-02
 -15.159  0.170E-02  0.170E-02
 -15.149  0.172E-02  0.172E-02
 -15.139  0.163E-02  0.163E-02
 -15.129  0.146E-02  0.146E-02
 -15.119  0.128E-02  0.128E-02
 -15.109  0.120E-02  0.120E-02
 -15.099  0.115E-02  0.115E-02
 -15.089  0.111E-02  0.111E-02
 -15.079  0.106E-02  0.106E-02
 -15.069  0.102E-02  0.102E-02
 -15.059  0.980E-03  0.980E-03
 -15.049  0.941E-03  0.941E-03
 -15.039  0.904E-03  0.904E-03
 -15.029  0.123E-02  0.123E-02
 -15.019  0.155E-02  0.155E-02
 -15.009  0.149E-02  0.149E-02
 -14.999  0.143E-02  0.143E-02
 -14.989  0.136E-02  0.136E-02
 -14.979  0.129E-02  0.129E-02
 -14.969  0.121E-02  0.121E-02
 -14.959  0.113E-02  0.113E-02
 -14.949  0.105E-02  0.105E-02
 -14.939  0.962E-03  0.962E-03
 -14.929  0.870E-03  0.870E-03
 -14.919  0.774E-03  0.774E-03
 -14.909  0.674E-03  0.674E-03
 -14.899  0.622E-03  0.622E-03
 -14.889  0.615E-03  0.615E-03
 -14.879  0.607E-03  0.607E-03
 -14.869  0.642E-03  0.642E-03
 -14.859  0.162E-02  0.162E-02
 -14.849  0.140E-02  0.140E-02
 -14.839  0.119E-02  0.119E-02
 -14.829  0.980E-03  0.980E-03
 -14.819  0.768E-03  0.768E-03
 -14.809  0.555E-03  0.555E-03
 -14.799  0.599E-03  0.599E-03
 -14.789  0.699E-03  0.699E-03
 -14.779  0.800E-03  0.800E-03
 -14.769  0.903E-03  0.903E-03
 -14.759  0.101E-02  0.101E-02
 -14.749  0.111E-02  0.111E-02
 -14.739  0.122E-02  0.122E-02
 -14.729  0.133E-02  0.133E-02
 -14.719  0.144E-02  0.144E-02
 -14.709  0.156E-02  0.156E-02
 -14.699  0.742E-03  0.742E-03
 -14.689  0.680E-03  0.680E-03
 -14.679  0.678E-03  0.678E-03
 -14.669  0.676E-03  0.676E-03
 -14.659  0.674E-03  0.674E-03
 -14.649  0.673E-03  0.673E-03
 -14.639  0.672E-03  0.672E-03
 -14.629  0.671E-03  0.671E-03
 -14.619  0.670E-03  0.670E-03
 -14.609  0.670E-03  0.670E-03
 -14.599  0.670E-03  0.670E-03
 -14.589  0.670E-03  0.670E-03
 -14.579  0.671E-03  0.671E-03
 -14.569  0.672E-03  0.672E-03
 -14.559  0.103E-02  0.103E-02
 -14.549  0.211E-02  0.211E-02
 -14.539  0.312E-02  0.312E-02
 -14.529  0.726E-03  0.726E-03
 -14.519  0.719E-03  0.719E-03
 -14.509  0.713E-03  0.713E-03
 -14.499  0.706E-03  0.706E-03
 -14.489  0.699E-03  0.699E-03
 -14.479  0.693E-03  0.693E-03
 -14.469  0.686E-03  0.686E-03
 -14.459  0.679E-03  0.679E-03
 -14.449  0.679E-03  0.679E-03
 -14.439  0.682E-03  0.682E-03
 -14.429  0.686E-03  0.686E-03
 -14.419  0.691E-03  0.691E-03
 -14.409  0.696E-03  0.696E-03
 -14.399  0.702E-03  0.702E-03
 -14.389  0.709E-03  0.709E-03
 -14.379  0.717E-03  0.717E-03
 -14.369  0.725E-03  0.725E-03
 -14.359  0.734E-03  0.734E-03
 -14.349  0.744E-03  0.744E-03
 -14.339  0.755E-03  0.755E-03
 -14.329  0.761E-03  0.761E-03
 -14.319  0.766E-03  0.766E-03
 -14.309  0.775E-03  0.775E-03
 -14.299  0.789E-03  0.789E-03
 -14.289  0.803E-03  0.803E-03
 -14.279  0.817E-03  0.817E-03
 -14.269  0.831E-03  0.831E-03
 -14.259  0.844E-03  0.844E-03
 -14.249  0.858E-03  0.858E-03
 -14.239  0.870E-03  0.870E-03
 -14.229  0.883E-03  0.883E-03
 -14.219  0.105E-02  0.105E-02
 -14.209  0.945E-03  0.945E-03
 -14.199  0.813E-03  0.813E-03
 -14.189  0.654E-03  0.654E-03
 -14.179  0.471E-03  0.471E-03
 -14.169  0.276E-03  0.276E-03
 -14.159  0.471E-03  0.471E-03
 -14.149  0.728E-03  0.728E-03
 -14.139  0.755E-03  0.755E-03
 -14.129  0.704E-03  0.704E-03
 -14.119  0.653E-03  0.653E-03
 -14.109  0.603E-03  0.603E-03
 -14.099  0.555E-03  0.555E-03
 -14.089  0.507E-03  0.507E-03
 -14.079  0.459E-03  0.459E-03
 -14.069  0.200E-03  0.200E-03
 -14.059  0.206E-03  0.206E-03
 -14.049  0.214E-03  0.214E-03
 -14.039  0.221E-03  0.221E-03
 -14.029  0.229E-03  0.229E-03
 -14.019  0.238E-03  0.238E-03
 -14.009  0.246E-03  0.246E-03
 -13.999  0.255E-03  0.255E-03
 -13.989  0.265E-03  0.265E-03
 -13.979  0.275E-03  0.275E-03
 -13.969  0.285E-03  0.285E-03
 -13.959  0.296E-03  0.296E-03
 -13.949  0.307E-03  0.307E-03
 -13.939  0.318E-03  0.318E-03
 -13.929  0.330E-03  0.330E-03
 -13.919  0.834E-03  0.834E-03
 -13.909  0.841E-03  0.841E-03
 -13.899  0.851E-03  0.851E-03
 -13.889  0.865E-03  0.865E-03
 -13.879  0.881E-03  0.881E-03
 -13.869  0.901E-03  0.901E-03
 -13.859  0.764E-03  0.764E-03
 -13.849  0.509E-03  0.509E-03
 -13.839  0.365E-03  0.365E-03
 -13.829  0.412E-03  0.412E-03
 -13.819  0.478E-03  0.478E-03
 -13.809  0.560E-03  0.560E-03
 -13.799  0.660E-03  0.660E-03
 -13.789  0.778E-03  0.778E-03
 -13.779  0.912E-03  0.912E-03
 -13.769  0.215E-02  0.215E-02
 -13.759  0.118E-02  0.118E-02
 -13.749  0.721E-03  0.721E-03
 -13.739  0.665E-03  0.665E-03
 -13.729  0.606E-03  0.606E-03
 -13.719  0.543E-03  0.543E-03
 -13.709  0.478E-03  0.478E-03
 -13.699  0.410E-03  0.410E-03
 -13.689  0.342E-03  0.342E-03
 -13.679  0.276E-03  0.276E-03
 -13.669  0.274E-03  0.274E-03
 -13.659  0.274E-03  0.274E-03
 -13.649  0.274E-03  0.274E-03
 -13.639  0.284E-03  0.284E-03
 -13.629  0.296E-03  0.296E-03
 -13.619  0.309E-03  0.309E-03
 -13.609  0.325E-03  0.325E-03
 -13.599  0.343E-03  0.343E-03
 -13.589  0.363E-03  0.363E-03
 -13.579  0.385E-03  0.385E-03
 -13.569  0.409E-03  0.409E-03
 -13.559  0.435E-03  0.435E-03
 -13.549  0.463E-03  0.463E-03
 -13.539  0.493E-03  0.493E-03
 -13.529  0.525E-03  0.525E-03
 -13.519  0.559E-03  0.559E-03
 -13.509  0.449E-03  0.449E-03
 -13.499  0.428E-03  0.428E-03
 -13.489  0.419E-03  0.419E-03
 -13.479  0.881E-03  0.881E-03
 -13.469  0.357E-03  0.357E-03
 -13.459  0.305E-03  0.305E-03
 -13.449  0.302E-03  0.302E-03
 -13.439  0.301E-03  0.301E-03
 -13.429  0.302E-03  0.302E-03
 -13.419  0.303E-03  0.303E-03
 -13.409  0.304E-03  0.304E-03
 -13.399  0.304E-03  0.304E-03
 -13.389  0.304E-03  0.304E-03
 -13.379  0.303E-03  0.303E-03
 -13.369  0.299E-03  0.299E-03
 -13.359  0.293E-03  0.293E-03
 -13.349  0.285E-03  0.285E-03
 -13.339  0.278E-03  0.278E-03
 -13.329  0.277E-03  0.277E-03
 -13.319  0.275E-03  0.275E-03
 -13.309  0.274E-03  0.274E-03
 -13.299  0.272E-03  0.272E-03
 -13.289  0.271E-03  0.271E-03
 -13.279  0.269E-03  0.269E-03
 -13.269  0.351E-03  0.351E-03
 -13.259  0.352E-03  0.352E-03
 -13.249  0.353E-03  0.353E-03
 -13.239  0.354E-03  0.354E-03
 -13.229  0.355E-03  0.355E-03
 -13.219  0.356E-03  0.356E-03
 -13.209  0.357E-03  0.357E-03
 -13.199  0.358E-03  0.358E-03
 -13.189  0.359E-03  0.359E-03
 -13.179  0.360E-03  0.360E-03
 -13.169  0.361E-03  0.361E-03
 -13.159  0.364E-03  0.364E-03
 -13.149  0.372E-03  0.372E-03
 -13.139  0.539E-03  0.539E-03
 -13.129  0.746E-03  0.746E-03
 -13.119  0.991E-03  0.991E-03
 -13.109  0.734E-03  0.734E-03
 -13.099  0.605E-03  0.605E-03
 -13.089  0.517E-03  0.517E-03
 -13.079  0.472E-03  0.472E-03
 -13.069  0.455E-03  0.455E-03
 -13.059  0.383E-03  0.383E-03
 -13.049  0.320E-03  0.320E-03
 -13.039  0.273E-03  0.273E-03
 -13.029  0.237E-03  0.237E-03
 -13.019  0.160E-04  0.160E-04
 -13.009  0.256E-04  0.256E-04
 -12.999  0.578E-04  0.578E-04
 -12.989  0.924E-04  0.924E-04
 -12.979  0.136E-03  0.136E-03
 -12.969  0.180E-03  0.180E-03
 -12.959  0.225E-03  0.225E-03
 -12.949  0.302E-03  0.302E-03
 -12.939  0.386E-03  0.386E-03
 -12.929  0.470E-03  0.470E-03
 -12.919  0.554E-03  0.554E-03
 -12.909  0.720E-03  0.720E-03
 -12.899  0.929E-03  0.929E-03
 -12.889  0.654E-03  0.654E-03
 -12.879  0.613E-03  0.613E-03
 -12.869  0.573E-03  0.573E-03
 -12.859  0.534E-03  0.534E-03
 -12.849  0.496E-03  0.496E-03
 -12.839  0.470E-03  0.470E-03
 -12.829  0.506E-03  0.506E-03
 -12.819  0.539E-03  0.539E-03
 -12.809  0.570E-03  0.570E-03
 -12.799  0.460E-03  0.460E-03
 -12.789  0.448E-03  0.448E-03
 -12.779  0.801E-03  0.801E-03
 -12.769  0.636E-03  0.636E-03
 -12.759  0.310E-03  0.310E-03
 -12.749  0.283E-03  0.283E-03
 -12.739  0.255E-03  0.255E-03
 -12.729  0.227E-03  0.227E-03
 -12.719  0.199E-03  0.199E-03
 -12.709  0.170E-03  0.170E-03
 -12.699  0.142E-03  0.142E-03
 -12.689  0.115E-03  0.115E-03
 -12.679  0.109E-03  0.109E-03
 -12.669  0.103E-03  0.103E-03
 -12.659  0.978E-04  0.978E-04
 -12.649  0.937E-04  0.937E-04
 -12.639  0.984E-04  0.984E-04
 -12.629  0.116E-03  0.116E-03
 -12.619  0.140E-03  0.140E-03
 -12.609  0.170E-03  0.170E-03
 -12.599  0.204E-03  0.204E-03
 -12.589  0.243E-03  0.243E-03
 -12.579  0.287E-03  0.287E-03
 -12.569  0.151E-03  0.151E-03
 -12.559  0.159E-03  0.159E-03
 -12.549  0.167E-03  0.167E-03
 -12.539  0.176E-03  0.176E-03
 -12.529  0.184E-03  0.184E-03
 -12.519  0.187E-03  0.187E-03
 -12.509  0.185E-03  0.185E-03
 -12.499  0.175E-03  0.175E-03
 -12.489  0.164E-03  0.164E-03
 -12.479  0.153E-03  0.153E-03
 -12.469  0.142E-03  0.142E-03
 -12.459  0.130E-03  0.130E-03
 -12.449  0.119E-03  0.119E-03
 -12.439  0.107E-03  0.107E-03
 -12.429  0.976E-04  0.976E-04
 -12.419  0.987E-04  0.987E-04
 -12.409  0.100E-03  0.100E-03
 -12.399  0.102E-03  0.102E-03
 -12.389  0.104E-03  0.104E-03
 -12.379  0.107E-03  0.107E-03
 -12.369  0.110E-03  0.110E-03
 -12.359  0.113E-03  0.113E-03
 -12.349  0.159E-03  0.159E-03
 -12.339  0.129E-03  0.129E-03
 -12.329  0.984E-04  0.984E-04
 -12.319  0.688E-04  0.688E-04
 -12.309  0.396E-04  0.396E-04
 -12.299  0.110E-04  0.110E-04
 -12.289  0.000E+00  0.000E+00
 -12.279  0.000E+00  0.000E+00
 -12.269  0.000E+00  0.000E+00
 -12.259  0.000E+00  0.000E+00
 -12.249  0.000E+00  0.000E+00
 -12.239  0.000E+00  0.000E+00
 -12.229  0.000E+00  0.000E+00
 -12.219  0.000E+00  0.000E+00
 -12.209  0.000E+00  0.000E+00
 -12.199  0.000E+00  0.000E+00
 -12.189  0.000E+00  0.000E+00
 -12.179  0.000E+00  0.000E+00
 -12.169  0.000E+00  0.000E+00
 -12.159  0.000E+00  0.000E+00
 -12.149  0.000E+00  0.000E+00
 -12.139  0.000E+00  0.000E+00
 -12.129  0.000E+00  0.000E+00
 -12.119  0.000E+00  0.000E+00
 -12.109  0.000E+00  0.000E+00
 -12.099  0.000E+00  0.000E+00
 -12.089  0.000E+00  0.000E+00
 -12.079  0.000E+00  0.000E+00
 -12.069  0.000E+00  0.000E+00
 -12.059  0.000E+00  0.000E+00
 -12.049  0.000E+00  0.000E+00
 -12.039  0.000E+00  0.000E+00
 -12.029  0.000E+00  0.000E+00
 -12.019  0.000E+00  0.000E+00
 -12.009  0.000E+00  0.000E+00
 -11.999  0.785E-01  0.785E-01
 -11.989  0.237E+00  0.237E+00
 -11.979  0.394E+00  0.394E+00
 -11.969  0.256E+00  0.256E+00
 -11.959  0.267E+00  0.267E+00
 -11.949  0.279E+00  0.279E+00
 -11.939  0.291E+00  0.291E+00
 -11.929  0.303E+00  0.303E+00
 -11.919  0.314E+00  0.314E+00
 -11.909  0.326E+00  0.326E+00
 -11.899  0.318E+00  0.318E+00
 -11.889  0.302E+00  0.302E+00
 -11.879  0.286E+00  0.286E+00
 -11.869  0.279E+00  0.279E+00
 -11.859  0.283E+00  0.283E+00
 -11.849  0.288E+00  0.288E+00
 -11.839  0.293E+00  0.293E+00
 -11.829  0.297E+00  0.297E+00
 -11.819  0.302E+00  0.302E+00
 -11.809  0.307E+00  0.307E+00
 -11.799  0.311E+00  0.311E+00
 -11.789  0.316E+00  0.316E+00
 -11.779  0.320E+00  0.320E+00
 -11.769  0.626E+00  0.626E+00
 -11.759  0.522E+00  0.522E+00
 -11.749  0.418E+00  0.418E+00
 -11.739  0.315E+00  0.315E+00
 -11.729  0.214E+00  0.214E+00
 -11.719  0.127E+00  0.127E+00
 -11.709  0.112E+00  0.112E+00
 -11.699  0.100E+00  0.100E+00
 -11.689  0.108E+00  0.108E+00
 -11.679  0.116E+00  0.116E+00
 -11.669  0.125E+00  0.125E+00
 -11.659  0.133E+00  0.133E+00
 -11.649  0.141E+00  0.141E+00
 -11.639  0.149E+00  0.149E+00
 -11.629  0.160E+00  0.160E+00
 -11.619  0.182E+00  0.182E+00
 -11.609  0.334E+00  0.334E+00
 -11.599  0.638E+00  0.638E+00
 -11.589  0.945E+00  0.945E+00
 -11.579  0.210E+00  0.210E+00
 -11.569  0.212E+00  0.212E+00
 -11.559  0.214E+00  0.214E+00
 -11.549  0.217E+00  0.217E+00
 -11.539  0.219E+00  0.219E+00
 -11.529  0.221E+00  0.221E+00
 -11.519  0.223E+00  0.223E+00
 -11.509  0.225E+00  0.225E+00
 -11.499  0.228E+00  0.228E+00
 -11.489  0.230E+00  0.230E+00
 -11.479  0.232E+00  0.232E+00
 -11.469  0.235E+00  0.235E+00
 -11.459  0.238E+00  0.238E+00
 -11.449  0.241E+00  0.241E+00
 -11.439  0.243E+00  0.243E+00
 -11.429  0.246E+00  0.246E+00
 -11.419  0.249E+00  0.249E+00
 -11.409  0.251E+00  0.251E+00
 -11.399  0.254E+00  0.254E+00
 -11.389  0.257E+00  0.257E+00
 -11.379  0.361E+00  0.361E+00
 -11.369  0.347E+00  0.347E+00
 -11.359  0.334E+00  0.334E+00
 -11.349  0.321E+00  0.321E+00
 -11.339  0.308E+00  0.308E+00
 -11.329  0.299E+00  0.299E+00
 -11.319  0.290E+00  0.290E+00
 -11.309  0.294E+00  0.294E+00
 -11.299  0.300E+00  0.300E+00
 -11.289  0.307E+00  0.307E+00
 -11.279  0.314E+00  0.314E+00
 -11.269  0.321E+00  0.321E+00
 -11.259  0.327E+00  0.327E+00
 -11.249  0.335E+00  0.335E+00
 -11.239  0.342E+00  0.342E+00
 -11.229  0.349E+00  0.349E+00
 -11.219  0.356E+00  0.356E+00
 -11.209  0.364E+00  0.364E+00
 -11.199  0.310E+00  0.310E+00
 -11.189  0.314E+00  0.314E+00
 -11.179  0.319E+00  0.319E+00
 -11.169  0.324E+00  0.324E+00
 -11.159  0.329E+00  0.329E+00
 -11.149  0.334E+00  0.334E+00
 -11.139  0.335E+00  0.335E+00
 -11.129  0.301E+00  0.301E+00
 -11.119  0.270E+00  0.270E+00
 -11.109  0.243E+00  0.243E+00
 -11.099  0.239E+00  0.239E+00
 -11.089  0.232E+00  0.232E+00
 -11.079  0.226E+00  0.226E+00
 -11.069  0.220E+00  0.220E+00
 -11.059  0.214E+00  0.214E+00
 -11.049  0.208E+00  0.208E+00
 -11.039  0.202E+00  0.202E+00
 -11.029  0.197E+00  0.197E+00
 -11.019  0.270E+00  0.270E+00
 -11.009  0.345E+00  0.345E+00
 -10.999  0.336E+00  0.336E+00
 -10.989  0.327E+00  0.327E+00
 -10.979  0.316E+00  0.316E+00
 -10.969  0.304E+00  0.304E+00
 -10.959  0.291E+00  0.291E+00
 -10.949  0.277E+00  0.277E+00
 -10.939  0.262E+00  0.262E+00
 -10.929  0.246E+00  0.246E+00
 -10.919  0.228E+00  0.228E+00
 -10.909  0.210E+00  0.210E+00
 -10.899  0.190E+00  0.190E+00
 -10.889  0.169E+00  0.169E+00
 -10.879  0.155E+00  0.155E+00
 -10.869  0.154E+00  0.154E+00
 -10.859  0.161E+00  0.161E+00
 -10.849  0.170E+00  0.170E+00
 -10.839  0.179E+00  0.179E+00
 -10.829  0.450E+00  0.450E+00
 -10.819  0.389E+00  0.389E+00
 -10.809  0.326E+00  0.326E+00
 -10.799  0.263E+00  0.263E+00
 -10.789  0.199E+00  0.199E+00
 -10.779  0.150E+00  0.150E+00
 -10.769  0.173E+00  0.173E+00
 -10.759  0.204E+00  0.204E+00
 -10.749  0.236E+00  0.236E+00
 -10.739  0.270E+00  0.270E+00
 -10.729  0.305E+00  0.305E+00
 -10.719  0.341E+00  0.341E+00
 -10.709  0.379E+00  0.379E+00
 -10.699  0.418E+00  0.418E+00
 -10.689  0.458E+00  0.458E+00
 -10.679  0.500E+00  0.500E+00
 -10.669  0.215E+00  0.215E+00
 -10.659  0.216E+00  0.216E+00
 -10.649  0.218E+00  0.218E+00
 -10.639  0.219E+00  0.219E+00
 -10.629  0.221E+00  0.221E+00
 -10.619  0.222E+00  0.222E+00
 -10.609  0.224E+00  0.224E+00
 -10.599  0.226E+00  0.226E+00
 -10.589  0.228E+00  0.228E+00
 -10.579  0.230E+00  0.230E+00
 -10.569  0.232E+00  0.232E+00
 -10.559  0.234E+00  0.234E+00
 -10.549  0.236E+00  0.236E+00
 -10.539  0.239E+00  0.239E+00
 -10.529  0.241E+00  0.241E+00
 -10.519  0.243E+00  0.243E+00
 -10.509  0.281E+00  0.281E+00
 -10.499  0.753E+00  0.753E+00
 -10.489  0.122E+01  0.122E+01
 -10.479  0.274E+00  0.274E+00
 -10.469  0.273E+00  0.273E+00
 -10.459  0.273E+00  0.273E+00
 -10.449  0.272E+00  0.272E+00
 -10.439  0.271E+00  0.271E+00
 -10.429  0.269E+00  0.269E+00
 -10.419  0.267E+00  0.267E+00
 -10.409  0.267E+00  0.267E+00
 -10.399  0.268E+00  0.268E+00
 -10.389  0.269E+00  0.269E+00
 -10.379  0.270E+00  0.270E+00
 -10.369  0.272E+00  0.272E+00
 -10.359  0.275E+00  0.275E+00
 -10.349  0.277E+00  0.277E+00
 -10.339  0.281E+00  0.281E+00
 -10.329  0.285E+00  0.285E+00
 -10.319  0.287E+00  0.287E+00
 -10.309  0.289E+00  0.289E+00
 -10.299  0.295E+00  0.295E+00
 -10.289  0.303E+00  0.303E+00
 -10.279  0.311E+00  0.311E+00
 -10.269  0.319E+00  0.319E+00
 -10.259  0.327E+00  0.327E+00
 -10.249  0.335E+00  0.335E+00
 -10.239  0.344E+00  0.344E+00
 -10.229  0.353E+00  0.353E+00
 -10.219  0.362E+00  0.362E+00
 -10.209  0.372E+00  0.372E+00
 -10.199  0.382E+00  0.382E+00
 -10.189  0.393E+00  0.393E+00
 -10.179  0.426E+00  0.426E+00
 -10.169  0.463E+00  0.463E+00
 -10.159  0.502E+00  0.502E+00
 -10.149  0.545E+00  0.545E+00
 -10.139  0.821E+00  0.821E+00
 -10.129  0.371E+00  0.371E+00
 -10.119  0.417E+00  0.417E+00
 -10.109  0.480E+00  0.480E+00
 -10.099  0.533E+00  0.533E+00
 -10.089  0.564E+00  0.564E+00
 -10.079  0.291E+00  0.291E+00
 -10.069  0.330E+00  0.330E+00
 -10.059  0.375E+00  0.375E+00
 -10.049  0.491E+00  0.491E+00
 -10.039  0.458E+00  0.458E+00
 -10.029  0.431E+00  0.431E+00
 -10.019  0.407E+00  0.407E+00
 -10.009  0.383E+00  0.383E+00
  -9.999  0.358E+00  0.358E+00
  -9.989  0.334E+00  0.334E+00
  -9.979  0.310E+00  0.310E+00
  -9.969  0.286E+00  0.286E+00
  -9.959  0.261E+00  0.261E+00
  -9.949  0.237E+00  0.237E+00
  -9.939  0.217E+00  0.217E+00
  -9.929  0.206E+00  0.206E+00
  -9.919  0.218E+00  0.218E+00
  -9.909  0.264E+00  0.264E+00
  -9.899  0.311E+00  0.311E+00
  -9.889  0.360E+00  0.360E+00
  -9.879  0.440E+00  0.440E+00
  -9.869  0.532E+00  0.532E+00
  -9.859  0.613E+00  0.613E+00
  -9.849  0.681E+00  0.681E+00
  -9.839  0.551E+00  0.551E+00
  -9.829  0.573E+00  0.573E+00
  -9.819  0.578E+00  0.578E+00
  -9.809  0.566E+00  0.566E+00
  -9.799  0.536E+00  0.536E+00
  -9.789  0.453E+00  0.453E+00
  -9.779  0.519E-01  0.519E-01
  -9.769  0.624E-02  0.624E-02
  -9.759  0.118E-01  0.118E-01
  -9.749  0.180E-01  0.180E-01
  -9.739  0.329E-01  0.329E-01
  -9.729  0.506E-01  0.506E-01
  -9.719  0.719E-01  0.719E-01
  -9.709  0.960E-01  0.960E-01
  -9.699  0.116E+00  0.116E+00
  -9.689  0.131E+00  0.131E+00
  -9.679  0.139E+00  0.139E+00
  -9.669  0.142E+00  0.142E+00
  -9.659  0.139E+00  0.139E+00
  -9.649  0.129E+00  0.129E+00
  -9.639  0.114E+00  0.114E+00
  -9.629  0.936E-01  0.936E-01
  -9.619  0.668E-01  0.668E-01
  -9.609  0.342E-01  0.342E-01
  -9.599  0.247E-01  0.247E-01
  -9.589  0.293E-01  0.293E-01
  -9.579  0.342E-01  0.342E-01
  -9.569  0.395E-01  0.395E-01
  -9.559  0.458E-01  0.458E-01
  -9.549  0.536E-01  0.536E-01
  -9.539  0.627E-01  0.627E-01
  -9.529  0.732E-01  0.732E-01
  -9.519  0.849E-01  0.849E-01
  -9.509  0.981E-01  0.981E-01
  -9.499  0.113E+00  0.113E+00
  -9.489  0.129E+00  0.129E+00
  -9.479  0.146E+00  0.146E+00
  -9.469  0.165E+00  0.165E+00
  -9.459  0.185E+00  0.185E+00
  -9.449  0.207E+00  0.207E+00
  -9.439  0.139E+00  0.139E+00
  -9.429  0.107E+00  0.107E+00
  -9.419  0.101E+00  0.101E+00
  -9.409  0.951E-01  0.951E-01
  -9.399  0.898E-01  0.898E-01
  -9.389  0.850E-01  0.850E-01
  -9.379  0.808E-01  0.808E-01
  -9.369  0.771E-01  0.771E-01
  -9.359  0.739E-01  0.739E-01
  -9.349  0.713E-01  0.713E-01
  -9.339  0.692E-01  0.692E-01
  -9.329  0.673E-01  0.673E-01
  -9.319  0.652E-01  0.652E-01
  -9.309  0.631E-01  0.631E-01
  -9.299  0.608E-01  0.608E-01
  -9.289  0.616E-01  0.616E-01
  -9.279  0.578E-01  0.578E-01
  -9.269  0.544E-01  0.544E-01
  -9.259  0.516E-01  0.516E-01
  -9.249  0.486E-01  0.486E-01
  -9.239  0.450E-01  0.450E-01
  -9.229  0.415E-01  0.415E-01
  -9.219  0.384E-01  0.384E-01
  -9.209  0.352E-01  0.352E-01
  -9.199  0.318E-01  0.318E-01
  -9.189  0.284E-01  0.284E-01
  -9.179  0.249E-01  0.249E-01
  -9.169  0.214E-01  0.214E-01
  -9.159  0.177E-01  0.177E-01
  -9.149  0.140E-01  0.140E-01
  -9.139  0.102E-01  0.102E-01
  -9.129  0.634E-02  0.634E-02
  -9.119  0.346E-02  0.346E-02
  -9.109  0.353E-02  0.353E-02
  -9.099  0.378E-02  0.378E-02
  -9.089  0.403E-02  0.403E-02
  -9.079  0.428E-02  0.428E-02
  -9.069  0.454E-02  0.454E-02
  -9.059  0.479E-02  0.479E-02
  -9.049  0.203E-01  0.203E-01
  -9.039  0.667E-02  0.667E-02
  -9.029  0.369E-02  0.369E-02
  -9.019  0.401E-02  0.401E-02
  -9.009  0.434E-02  0.434E-02
  -8.999  0.468E-02  0.468E-02
  -8.989  0.502E-02  0.502E-02
  -8.979  0.537E-02  0.537E-02
  -8.969  0.573E-02  0.573E-02
  -8.959  0.610E-02  0.610E-02
  -8.949  0.647E-02  0.647E-02
  -8.939  0.685E-02  0.685E-02
  -8.929  0.834E-02  0.834E-02
  -8.919  0.887E-02  0.887E-02
  -8.909  0.935E-02  0.935E-02
  -8.899  0.980E-02  0.980E-02
  -8.889  0.102E-01  0.102E-01
  -8.879  0.106E-01  0.106E-01
  -8.869  0.109E-01  0.109E-01
  -8.859  0.112E-01  0.112E-01
  -8.849  0.184E-01  0.184E-01
  -8.839  0.178E-01  0.178E-01
  -8.829  0.171E-01  0.171E-01
  -8.819  0.164E-01  0.164E-01
  -8.809  0.157E-01  0.157E-01
  -8.799  0.150E-01  0.150E-01
  -8.789  0.143E-01  0.143E-01
  -8.779  0.135E-01  0.135E-01
  -8.769  0.127E-01  0.127E-01
  -8.759  0.120E-01  0.120E-01
  -8.749  0.111E-01  0.111E-01
  -8.739  0.103E-01  0.103E-01
  -8.729  0.953E-02  0.953E-02
  -8.719  0.874E-02  0.874E-02
  -8.709  0.795E-02  0.795E-02
  -8.699  0.124E-01  0.124E-01
  -8.689  0.366E-01  0.366E-01
  -8.679  0.814E-01  0.814E-01
  -8.669  0.147E+00  0.147E+00
  -8.659  0.233E+00  0.233E+00
  -8.649  0.333E+00  0.333E+00
  -8.639  0.211E+00  0.211E+00
  -8.629  0.156E+00  0.156E+00
  -8.619  0.117E+00  0.117E+00
  -8.609  0.929E-01  0.929E-01
  -8.599  0.832E-01  0.832E-01
  -8.589  0.850E-01  0.850E-01
  -8.579  0.878E-01  0.878E-01
  -8.569  0.906E-01  0.906E-01
  -8.559  0.936E-01  0.936E-01
  -8.549  0.968E-01  0.968E-01
  -8.539  0.100E+00  0.100E+00
  -8.529  0.103E+00  0.103E+00
  -8.519  0.107E+00  0.107E+00
  -8.509  0.111E+00  0.111E+00
  -8.499  0.114E+00  0.114E+00
  -8.489  0.118E+00  0.118E+00
  -8.479  0.127E+00  0.127E+00
  -8.469  0.140E+00  0.140E+00
  -8.459  0.152E+00  0.152E+00
  -8.449  0.163E+00  0.163E+00
  -8.439  0.174E+00  0.174E+00
  -8.429  0.185E+00  0.185E+00
  -8.419  0.195E+00  0.195E+00
  -8.409  0.204E+00  0.204E+00
  -8.399  0.214E+00  0.214E+00
  -8.389  0.222E+00  0.222E+00
  -8.379  0.226E+00  0.226E+00
  -8.369  0.230E+00  0.230E+00
  -8.359  0.232E+00  0.232E+00
  -8.349  0.218E+00  0.218E+00
  -8.339  0.224E+00  0.224E+00
  -8.329  0.222E+00  0.222E+00
  -8.319  0.211E+00  0.211E+00
  -8.309  0.194E+00  0.194E+00
  -8.299  0.179E+00  0.179E+00
  -8.289  0.311E+00  0.311E+00
  -8.279  0.578E+00  0.578E+00
  -8.269  0.219E+00  0.219E+00
  -8.259  0.223E+00  0.223E+00
  -8.249  0.227E+00  0.227E+00
  -8.239  0.228E+00  0.228E+00
  -8.229  0.228E+00  0.228E+00
  -8.219  0.226E+00  0.226E+00
  -8.209  0.242E+00  0.242E+00
  -8.199  0.259E+00  0.259E+00
  -8.189  0.276E+00  0.276E+00
  -8.179  0.293E+00  0.293E+00
  -8.169  0.210E+00  0.210E+00
  -8.159  0.217E+00  0.217E+00
  -8.149  0.224E+00  0.224E+00
  -8.139  0.229E+00  0.229E+00
  -8.129  0.235E+00  0.235E+00
  -8.119  0.239E+00  0.239E+00
  -8.109  0.243E+00  0.243E+00
  -8.099  0.247E+00  0.247E+00
  -8.089  0.250E+00  0.250E+00
  -8.079  0.266E+00  0.266E+00
  -8.069  0.281E+00  0.281E+00
  -8.059  0.293E+00  0.293E+00
  -8.049  0.302E+00  0.302E+00
  -8.039  0.307E+00  0.307E+00
  -8.029  0.310E+00  0.310E+00
  -8.019  0.309E+00  0.309E+00
  -8.009  0.305E+00  0.305E+00
  -7.999  0.291E+00  0.291E+00
  -7.989  0.267E+00  0.267E+00
  -7.979  0.435E+00  0.435E+00
  -7.969  0.373E+00  0.373E+00
  -7.959  0.287E+00  0.287E+00
  -7.949  0.195E+00  0.195E+00
  -7.939  0.113E+00  0.113E+00
  -7.929  0.109E+00  0.109E+00
  -7.919  0.106E+00  0.106E+00
  -7.909  0.103E+00  0.103E+00
  -7.899  0.100E+00  0.100E+00
  -7.889  0.961E-01  0.961E-01
  -7.879  0.916E-01  0.916E-01
  -7.869  0.866E-01  0.866E-01
  -7.859  0.364E+00  0.364E+00
  -7.849  0.326E+00  0.326E+00
  -7.839  0.290E+00  0.290E+00
  -7.829  0.256E+00  0.256E+00
  -7.819  0.224E+00  0.224E+00
  -7.809  0.199E+00  0.199E+00
  -7.799  0.182E+00  0.182E+00
  -7.789  0.168E+00  0.168E+00
  -7.779  0.157E+00  0.157E+00
  -7.769  0.148E+00  0.148E+00
  -7.759  0.142E+00  0.142E+00
  -7.749  0.139E+00  0.139E+00
  -7.739  0.139E+00  0.139E+00
  -7.729  0.139E+00  0.139E+00
  -7.719  0.140E+00  0.140E+00
  -7.709  0.141E+00  0.141E+00
  -7.699  0.142E+00  0.142E+00
  -7.689  0.144E+00  0.144E+00
  -7.679  0.146E+00  0.146E+00
  -7.669  0.147E+00  0.147E+00
  -7.659  0.149E+00  0.149E+00
  -7.649  0.151E+00  0.151E+00
  -7.639  0.154E+00  0.154E+00
  -7.629  0.162E+00  0.162E+00
  -7.619  0.194E+00  0.194E+00
  -7.609  0.247E+00  0.247E+00
  -7.599  0.308E+00  0.308E+00
  -7.589  0.112E+00  0.112E+00
  -7.579  0.116E+00  0.116E+00
  -7.569  0.120E+00  0.120E+00
  -7.559  0.125E+00  0.125E+00
  -7.549  0.129E+00  0.129E+00
  -7.539  0.133E+00  0.133E+00
  -7.529  0.120E+00  0.120E+00
  -7.519  0.124E+00  0.124E+00
  -7.509  0.127E+00  0.127E+00
  -7.499  0.131E+00  0.131E+00
  -7.489  0.134E+00  0.134E+00
  -7.479  0.138E+00  0.138E+00
  -7.469  0.142E+00  0.142E+00
  -7.459  0.145E+00  0.145E+00
  -7.449  0.149E+00  0.149E+00
  -7.439  0.152E+00  0.152E+00
  -7.429  0.155E+00  0.155E+00
  -7.419  0.730E+00  0.730E+00
  -7.409  0.545E+00  0.545E+00
  -7.399  0.432E+00  0.432E+00
  -7.389  0.373E+00  0.373E+00
  -7.379  0.309E+00  0.309E+00
  -7.369  0.233E+00  0.233E+00
  -7.359  0.148E+00  0.148E+00
  -7.349  0.974E-01  0.974E-01
  -7.339  0.868E-01  0.868E-01
  -7.329  0.805E-01  0.805E-01
  -7.319  0.755E-01  0.755E-01
  -7.309  0.718E-01  0.718E-01
  -7.299  0.693E-01  0.693E-01
  -7.289  0.682E-01  0.682E-01
  -7.279  0.685E-01  0.685E-01
  -7.269  0.702E-01  0.702E-01
  -7.259  0.724E-01  0.724E-01
  -7.249  0.747E-01  0.747E-01
  -7.239  0.862E-01  0.862E-01
  -7.229  0.881E-01  0.881E-01
  -7.219  0.900E-01  0.900E-01
  -7.209  0.921E-01  0.921E-01
  -7.199  0.942E-01  0.942E-01
  -7.189  0.964E-01  0.964E-01
  -7.179  0.988E-01  0.988E-01
  -7.169  0.101E+00  0.101E+00
  -7.159  0.104E+00  0.104E+00
  -7.149  0.107E+00  0.107E+00
  -7.139  0.110E+00  0.110E+00
  -7.129  0.112E+00  0.112E+00
  -7.119  0.116E+00  0.116E+00
  -7.109  0.119E+00  0.119E+00
  -7.099  0.122E+00  0.122E+00
  -7.089  0.126E+00  0.126E+00
  -7.079  0.129E+00  0.129E+00
  -7.069  0.133E+00  0.133E+00
  -7.059  0.137E+00  0.137E+00
  -7.049  0.141E+00  0.141E+00
  -7.039  0.145E+00  0.145E+00
  -7.029  0.149E+00  0.149E+00
  -7.019  0.161E+00  0.161E+00
  -7.009  0.309E+00  0.309E+00
  -6.999  0.148E+00  0.148E+00
  -6.989  0.239E+00  0.239E+00
  -6.979  0.165E+00  0.165E+00
  -6.969  0.117E+00  0.117E+00
  -6.959  0.113E+00  0.113E+00
  -6.949  0.106E+00  0.106E+00
  -6.939  0.952E-01  0.952E-01
  -6.929  0.819E-01  0.819E-01
  -6.919  0.655E-01  0.655E-01
  -6.909  0.509E-01  0.509E-01
  -6.899  0.441E-01  0.441E-01
  -6.889  0.419E-01  0.419E-01
  -6.879  0.430E-01  0.430E-01
  -6.869  0.441E-01  0.441E-01
  -6.859  0.450E-01  0.450E-01
  -6.849  0.286E+01  0.286E+01
  -6.839  0.864E-01  0.864E-01
  -6.829  0.742E-01  0.742E-01
  -6.819  0.632E-01  0.632E-01
  -6.809  0.501E-01  0.501E-01
  -6.799  0.409E-01  0.409E-01
  -6.789  0.331E-01  0.331E-01
  -6.779  0.265E-01  0.265E-01
  -6.769  0.212E-01  0.212E-01
  -6.759  0.172E-01  0.172E-01
  -6.749  0.145E-01  0.145E-01
  -6.739  0.132E-01  0.132E-01
  -6.729  0.131E-01  0.131E-01
  -6.719  0.143E-01  0.143E-01
  -6.709  0.162E-01  0.162E-01
  -6.699  0.209E-01  0.209E-01
  -6.689  0.299E-01  0.299E-01
  -6.679  0.442E-01  0.442E-01
  -6.669  0.706E-01  0.706E-01
  -6.659  0.113E+00  0.113E+00
  -6.649  0.170E+00  0.170E+00
  -6.639  0.241E+00  0.241E+00
  -6.629  0.326E+00  0.326E+00
  -6.619  0.426E+00  0.426E+00
  -6.609  0.142E+00  0.142E+00
  -6.599  0.133E+00  0.133E+00
  -6.589  0.127E+00  0.127E+00
  -6.579  0.122E+00  0.122E+00
  -6.569  0.118E+00  0.118E+00
  -6.559  0.117E+00  0.117E+00
  -6.549  0.118E+00  0.118E+00
  -6.539  0.122E+00  0.122E+00
  -6.529  0.133E+00  0.133E+00
  -6.519  0.154E+00  0.154E+00
  -6.509  0.110E+00  0.110E+00
  -6.499  0.109E+00  0.109E+00
  -6.489  0.108E+00  0.108E+00
  -6.479  0.107E+00  0.107E+00
  -6.469  0.106E+00  0.106E+00
  -6.459  0.105E+00  0.105E+00
  -6.449  0.104E+00  0.104E+00
  -6.439  0.102E+00  0.102E+00
  -6.429  0.101E+00  0.101E+00
  -6.419  0.989E-01  0.989E-01
  -6.409  0.971E-01  0.971E-01
  -6.399  0.951E-01  0.951E-01
  -6.389  0.930E-01  0.930E-01
  -6.379  0.936E-01  0.936E-01
  -6.369  0.988E-01  0.988E-01
  -6.359  0.102E+00  0.102E+00
  -6.349  0.104E+00  0.104E+00
  -6.339  0.104E+00  0.104E+00
  -6.329  0.102E+00  0.102E+00
  -6.319  0.118E+00  0.118E+00
  -6.309  0.134E+00  0.134E+00
  -6.299  0.308E-01  0.308E-01
  -6.289  0.318E-01  0.318E-01
  -6.279  0.332E-01  0.332E-01
  -6.269  0.347E-01  0.347E-01
  -6.259  0.364E-01  0.364E-01
  -6.249  0.382E-01  0.382E-01
  -6.239  0.387E-01  0.387E-01
  -6.229  0.411E-01  0.411E-01
  -6.219  0.434E-01  0.434E-01
  -6.209  0.457E-01  0.457E-01
  -6.199  0.479E-01  0.479E-01
  -6.189  0.545E-01  0.545E-01
  -6.179  0.556E-01  0.556E-01
  -6.169  0.565E-01  0.565E-01
  -6.159  0.578E-01  0.578E-01
  -6.149  0.587E-01  0.587E-01
  -6.139  0.598E-01  0.598E-01
  -6.129  0.611E-01  0.611E-01
  -6.119  0.625E-01  0.625E-01
  -6.109  0.638E-01  0.638E-01
  -6.099  0.650E-01  0.650E-01
  -6.089  0.663E-01  0.663E-01
  -6.079  0.671E-01  0.671E-01
  -6.069  0.677E-01  0.677E-01
  -6.059  0.687E-01  0.687E-01
  -6.049  0.749E-01  0.749E-01
  -6.039  0.873E-01  0.873E-01
  -6.029  0.966E-01  0.966E-01
  -6.019  0.104E+00  0.104E+00
  -6.009  0.110E+00  0.110E+00
  -5.999  0.115E+00  0.115E+00
  -5.989  0.120E+00  0.120E+00
  -5.979  0.123E+00  0.123E+00
  -5.969  0.124E+00  0.124E+00
  -5.959  0.125E+00  0.125E+00
  -5.949  0.125E+00  0.125E+00
  -5.939  0.124E+00  0.124E+00
  -5.929  0.122E+00  0.122E+00
  -5.919  0.120E+00  0.120E+00
  -5.909  0.327E+00  0.327E+00
  -5.899  0.929E-01  0.929E-01
  -5.889  0.877E-01  0.877E-01
  -5.879  0.821E-01  0.821E-01
  -5.869  0.747E-01  0.747E-01
  -5.859  0.687E-01  0.687E-01
  -5.849  0.627E-01  0.627E-01
  -5.839  0.569E-01  0.569E-01
  -5.829  0.511E-01  0.511E-01
  -5.819  0.454E-01  0.454E-01
  -5.809  0.401E-01  0.401E-01
  -5.799  0.350E-01  0.350E-01
  -5.789  0.301E-01  0.301E-01
  -5.779  0.254E-01  0.254E-01
  -5.769  0.209E-01  0.209E-01
  -5.759  0.166E-01  0.166E-01
  -5.749  0.125E-01  0.125E-01
  -5.739  0.864E-02  0.864E-02
  -5.729  0.685E-02  0.685E-02
  -5.719  0.548E-02  0.548E-02
  -5.709  0.457E-02  0.457E-02
  -5.699  0.413E-02  0.413E-02
  -5.689  0.405E-02  0.405E-02
  -5.679  0.392E-02  0.392E-02
  -5.669  0.374E-02  0.374E-02
  -5.659  0.353E-02  0.353E-02
  -5.649  0.332E-02  0.332E-02
  -5.639  0.312E-02  0.312E-02
  -5.629  0.292E-02  0.292E-02
  -5.619  0.274E-02  0.274E-02
  -5.609  0.257E-02  0.257E-02
  -5.599  0.242E-02  0.242E-02
  -5.589  0.227E-02  0.227E-02
  -5.579  0.213E-02  0.213E-02
  -5.569  0.191E-02  0.191E-02
  -5.559  0.185E-02  0.185E-02
  -5.549  0.178E-02  0.178E-02
  -5.539  0.172E-02  0.172E-02
  -5.529  0.167E-02  0.167E-02
  -5.519  0.161E-02  0.161E-02
  -5.509  0.155E-02  0.155E-02
  -5.499  0.149E-02  0.149E-02
  -5.489  0.143E-02  0.143E-02
  -5.479  0.138E-02  0.138E-02
  -5.469  0.132E-02  0.132E-02
  -5.459  0.126E-02  0.126E-02
  -5.449  0.121E-02  0.121E-02
  -5.439  0.115E-02  0.115E-02
  -5.429  0.110E-02  0.110E-02
  -5.419  0.105E-02  0.105E-02
  -5.409  0.993E-03  0.993E-03
  -5.399  0.263E-02  0.263E-02
  -5.389  0.128E-02  0.128E-02
  -5.379  0.664E-03  0.664E-03
  -5.369  0.824E-03  0.824E-03
  -5.359  0.162E-02  0.162E-02
  -5.349  0.303E-02  0.303E-02
  -5.339  0.506E-02  0.506E-02
  -5.329  0.771E-02  0.771E-02
  -5.319  0.110E-01  0.110E-01
  -5.309  0.149E-01  0.149E-01
  -5.299  0.194E-01  0.194E-01
  -5.289  0.245E-01  0.245E-01
  -5.279  0.302E-01  0.302E-01
  -5.269  0.593E-01  0.593E-01
  -5.259  0.126E+00  0.126E+00
  -5.249  0.155E+00  0.155E+00
  -5.239  0.166E+00  0.166E+00
  -5.229  0.201E+00  0.201E+00
  -5.219  0.244E+00  0.244E+00
  -5.209  0.162E+00  0.162E+00
  -5.199  0.125E+00  0.125E+00
  -5.189  0.129E+00  0.129E+00
  -5.179  0.149E+00  0.149E+00
  -5.169  0.192E+00  0.192E+00
  -5.159  0.149E+00  0.149E+00
  -5.149  0.111E+00  0.111E+00
  -5.139  0.116E+00  0.116E+00
  -5.129  0.113E+00  0.113E+00
  -5.119  0.109E+00  0.109E+00
  -5.109  0.105E+00  0.105E+00
  -5.099  0.103E+00  0.103E+00
  -5.089  0.104E+00  0.104E+00
  -5.079  0.104E+00  0.104E+00
  -5.069  0.104E+00  0.104E+00
  -5.059  0.104E+00  0.104E+00
  -5.049  0.103E+00  0.103E+00
  -5.039  0.103E+00  0.103E+00
  -5.029  0.102E+00  0.102E+00
  -5.019  0.101E+00  0.101E+00
  -5.009  0.105E+00  0.105E+00
  -4.999  0.120E+00  0.120E+00
  -4.989  0.147E+00  0.147E+00
  -4.979  0.185E+00  0.185E+00
  -4.969  0.236E+00  0.236E+00
  -4.959  0.298E+00  0.298E+00
  -4.949  0.318E-01  0.318E-01
  -4.939  0.514E-01  0.514E-01
  -4.929  0.309E-01  0.309E-01
  -4.919  0.184E-01  0.184E-01
  -4.909  0.905E-02  0.905E-02
  -4.899  0.288E-02  0.288E-02
  -4.889  0.102E+00  0.102E+00
  -4.879  0.181E+00  0.181E+00
  -4.869  0.660E-01  0.660E-01
  -4.859  0.569E-02  0.569E-02
  -4.849  0.445E-01  0.445E-01
  -4.839  0.813E-01  0.813E-01
  -4.829  0.981E-01  0.981E-01
  -4.819  0.943E-01  0.943E-01
  -4.809  0.700E-01  0.700E-01
  -4.799  0.315E-01  0.315E-01
  -4.789  0.383E-01  0.383E-01
  -4.779  0.455E-01  0.455E-01
  -4.769  0.529E-01  0.529E-01
  -4.759  0.486E-01  0.486E-01
  -4.749  0.519E-01  0.519E-01
  -4.739  0.548E-01  0.548E-01
  -4.729  0.571E-01  0.571E-01
  -4.719  0.590E-01  0.590E-01
  -4.709  0.603E-01  0.603E-01
  -4.699  0.611E-01  0.611E-01
  -4.689  0.752E-01  0.752E-01
  -4.679  0.122E+00  0.122E+00
  -4.669  0.155E+00  0.155E+00
  -4.659  0.160E+00  0.160E+00
  -4.649  0.137E+00  0.137E+00
  -4.639  0.869E-01  0.869E-01
  -4.629  0.201E-01  0.201E-01
  -4.619  0.108E-01  0.108E-01
  -4.609  0.244E-01  0.244E-01
  -4.599  0.221E-01  0.221E-01
  -4.589  0.796E-02  0.796E-02
  -4.579  0.831E-02  0.831E-02
  -4.569  0.864E-02  0.864E-02
  -4.559  0.987E-02  0.987E-02
  -4.549  0.130E-01  0.130E-01
  -4.539  0.182E-01  0.182E-01
  -4.529  0.252E-01  0.252E-01
  -4.519  0.316E-01  0.316E-01
  -4.509  0.413E-01  0.413E-01
  -4.499  0.540E-01  0.540E-01
  -4.489  0.681E-01  0.681E-01
  -4.479  0.890E-01  0.890E-01
  -4.469  0.982E-01  0.982E-01
  -4.459  0.115E+00  0.115E+00
  -4.449  0.137E+00  0.137E+00
  -4.439  0.239E+00  0.239E+00
  -4.429  0.185E+00  0.185E+00
  -4.419  0.142E+00  0.142E+00
  -4.409  0.112E+00  0.112E+00
  -4.399  0.938E-01  0.938E-01
  -4.389  0.861E-01  0.861E-01
  -4.379  0.794E-01  0.794E-01
  -4.369  0.727E-01  0.727E-01
  -4.359  0.689E-01  0.689E-01
  -4.349  0.659E-01  0.659E-01
  -4.339  0.641E-01  0.641E-01
  -4.329  0.621E-01  0.621E-01
  -4.319  0.612E-01  0.612E-01
  -4.309  0.619E-01  0.619E-01
  -4.299  0.616E-01  0.616E-01
  -4.289  0.585E-01  0.585E-01
  -4.279  0.541E-01  0.541E-01
  -4.269  0.483E-01  0.483E-01
  -4.259  0.429E-01  0.429E-01
  -4.249  0.288E-01  0.288E-01
  -4.239  0.254E-01  0.254E-01
  -4.229  0.560E-01  0.560E-01
  -4.219  0.494E-01  0.494E-01
  -4.209  0.438E-01  0.438E-01
  -4.199  0.394E-01  0.394E-01
  -4.189  0.390E-01  0.390E-01
  -4.179  0.431E-01  0.431E-01
  -4.169  0.516E-01  0.516E-01
  -4.159  0.645E-01  0.645E-01
  -4.149  0.819E-01  0.819E-01
  -4.139  0.101E+00  0.101E+00
  -4.129  0.123E+00  0.123E+00
  -4.119  0.151E+00  0.151E+00
  -4.109  0.177E+00  0.177E+00
  -4.099  0.819E-01  0.819E-01
  -4.089  0.846E-01  0.846E-01
  -4.079  0.874E-01  0.874E-01
  -4.069  0.896E-01  0.896E-01
  -4.059  0.929E-01  0.929E-01
  -4.049  0.963E-01  0.963E-01
  -4.039  0.999E-01  0.999E-01
  -4.029  0.104E+00  0.104E+00
  -4.019  0.107E+00  0.107E+00
  -4.009  0.111E+00  0.111E+00
  -3.999  0.116E+00  0.116E+00
  -3.989  0.124E+00  0.124E+00
  -3.979  0.988E-01  0.988E-01
  -3.969  0.762E-01  0.762E-01
  -3.959  0.615E-01  0.615E-01
  -3.949  0.882E-01  0.882E-01
  -3.939  0.103E+00  0.103E+00
  -3.929  0.205E-01  0.205E-01
  -3.919  0.131E-01  0.131E-01
  -3.909  0.872E-02  0.872E-02
  -3.899  0.731E-02  0.731E-02
  -3.889  0.707E-02  0.707E-02
  -3.879  0.681E-02  0.681E-02
  -3.869  0.654E-02  0.654E-02
  -3.859  0.626E-02  0.626E-02
  -3.849  0.588E-02  0.588E-02
  -3.839  0.516E-02  0.516E-02
  -3.829  0.450E-02  0.450E-02
  -3.819  0.402E-02  0.402E-02
  -3.809  0.307E-02  0.307E-02
  -3.799  0.678E-02  0.678E-02
  -3.789  0.109E-01  0.109E-01
  -3.779  0.141E-01  0.141E-01
  -3.769  0.156E-01  0.156E-01
  -3.759  0.154E-01  0.154E-01
  -3.749  0.136E-01  0.136E-01
  -3.739  0.221E-01  0.221E-01
  -3.729  0.132E-01  0.132E-01
  -3.719  0.747E-02  0.747E-02
  -3.709  0.652E-02  0.652E-02
  -3.699  0.575E-02  0.575E-02
  -3.689  0.550E-02  0.550E-02
  -3.679  0.619E-02  0.619E-02
  -3.669  0.776E-02  0.776E-02
  -3.659  0.102E-01  0.102E-01
  -3.649  0.132E-01  0.132E-01
  -3.639  0.169E-01  0.169E-01
  -3.629  0.634E-02  0.634E-02
  -3.619  0.678E-02  0.678E-02
  -3.609  0.753E-02  0.753E-02
  -3.599  0.825E-02  0.825E-02
  -3.589  0.896E-02  0.896E-02
  -3.579  0.964E-02  0.964E-02
  -3.569  0.103E-01  0.103E-01
  -3.559  0.109E-01  0.109E-01
  -3.549  0.115E-01  0.115E-01
  -3.539  0.125E-01  0.125E-01
  -3.529  0.142E-01  0.142E-01
  -3.519  0.166E-01  0.166E-01
  -3.509  0.200E-01  0.200E-01
  -3.499  0.247E-01  0.247E-01
  -3.489  0.162E-01  0.162E-01
  -3.479  0.183E-01  0.183E-01
  -3.469  0.128E-01  0.128E-01
  -3.459  0.129E-01  0.129E-01
  -3.449  0.130E-01  0.130E-01
  -3.439  0.131E-01  0.131E-01
  -3.429  0.132E-01  0.132E-01
  -3.419  0.132E-01  0.132E-01
  -3.409  0.132E-01  0.132E-01
  -3.399  0.132E-01  0.132E-01
  -3.389  0.132E-01  0.132E-01
  -3.379  0.132E-01  0.132E-01
  -3.369  0.131E-01  0.131E-01
  -3.359  0.131E-01  0.131E-01
  -3.349  0.137E-01  0.137E-01
  -3.339  0.139E-01  0.139E-01
  -3.329  0.140E-01  0.140E-01
  -3.319  0.140E-01  0.140E-01
  -3.309  0.139E-01  0.139E-01
  -3.299  0.137E-01  0.137E-01
  -3.289  0.134E-01  0.134E-01
  -3.279  0.130E-01  0.130E-01
  -3.269  0.124E-01  0.124E-01
  -3.259  0.118E-01  0.118E-01
  -3.249  0.118E-01  0.118E-01
  -3.239  0.118E-01  0.118E-01
  -3.229  0.118E-01  0.118E-01
  -3.219  0.118E-01  0.118E-01
  -3.209  0.118E-01  0.118E-01
  -3.199  0.117E-01  0.117E-01
  -3.189  0.117E-01  0.117E-01
  -3.179  0.117E-01  0.117E-01
  -3.169  0.117E-01  0.117E-01
  -3.159  0.117E-01  0.117E-01
  -3.149  0.117E-01  0.117E-01
  -3.139  0.117E-01  0.117E-01
  -3.129  0.118E-01  0.118E-01
  -3.119  0.120E-01  0.120E-01
  -3.109  0.122E-01  0.122E-01
  -3.099  0.125E-01  0.125E-01
  -3.089  0.128E-01  0.128E-01
  -3.079  0.131E-01  0.131E-01
  -3.069  0.134E-01  0.134E-01
  -3.059  0.136E-01  0.136E-01
  -3.049  0.138E-01  0.138E-01
  -3.039  0.132E-01  0.132E-01
  -3.029  0.157E-01  0.157E-01
  -3.019  0.157E-01  0.157E-01
  -3.009  0.139E-01  0.139E-01
  -2.999  0.136E-01  0.136E-01
  -2.989  0.133E-01  0.133E-01
  -2.979  0.130E-01  0.130E-01
  -2.969  0.126E-01  0.126E-01
  -2.959  0.122E-01  0.122E-01
  -2.949  0.124E-01  0.124E-01
  -2.939  0.120E-01  0.120E-01
  -2.929  0.117E-01  0.117E-01
  -2.919  0.113E-01  0.113E-01
  -2.909  0.155E-01  0.155E-01
  -2.899  0.136E-01  0.136E-01
  -2.889  0.110E-01  0.110E-01
  -2.879  0.926E-02  0.926E-02
  -2.869  0.744E-02  0.744E-02
  -2.859  0.600E-02  0.600E-02
  -2.849  0.523E-02  0.523E-02
  -2.839  0.460E-02  0.460E-02
  -2.829  0.410E-02  0.410E-02
  -2.819  0.370E-02  0.370E-02
  -2.809  0.340E-02  0.340E-02
  -2.799  0.349E-02  0.349E-02
  -2.789  0.106E-01  0.106E-01
  -2.779  0.305E-02  0.305E-02
  -2.769  0.413E-02  0.413E-02
  -2.759  0.521E-02  0.521E-02
  -2.749  0.633E-02  0.633E-02
  -2.739  0.707E-02  0.707E-02
  -2.729  0.790E-02  0.790E-02
  -2.719  0.882E-02  0.882E-02
  -2.709  0.257E-01  0.257E-01
  -2.699  0.140E-01  0.140E-01
  -2.689  0.172E-01  0.172E-01
  -2.679  0.210E-01  0.210E-01
  -2.669  0.255E-01  0.255E-01
  -2.659  0.329E-01  0.329E-01
  -2.649  0.368E-01  0.368E-01
  -2.639  0.595E-01  0.595E-01
  -2.629  0.475E-01  0.475E-01
  -2.619  0.459E-01  0.459E-01
  -2.609  0.149E-01  0.149E-01
  -2.599  0.123E-01  0.123E-01
  -2.589  0.106E-01  0.106E-01
  -2.579  0.893E-02  0.893E-02
  -2.569  0.717E-02  0.717E-02
  -2.559  0.868E-02  0.868E-02
  -2.549  0.319E-02  0.319E-02
  -2.539  0.865E-02  0.865E-02
  -2.529  0.983E-02  0.983E-02
  -2.519  0.106E-01  0.106E-01
  -2.509  0.178E-01  0.178E-01
  -2.499  0.204E-01  0.204E-01
  -2.489  0.224E-01  0.224E-01
  -2.479  0.236E-01  0.236E-01
  -2.469  0.241E-01  0.241E-01
  -2.459  0.239E-01  0.239E-01
  -2.449  0.228E-01  0.228E-01
  -2.439  0.214E-01  0.214E-01
  -2.429  0.236E-01  0.236E-01
  -2.419  0.236E-01  0.236E-01
  -2.409  0.216E-01  0.216E-01
  -2.399  0.164E-01  0.164E-01
  -2.389  0.190E-01  0.190E-01
  -2.379  0.371E-01  0.371E-01
  -2.369  0.144E-01  0.144E-01
  -2.359  0.139E-01  0.139E-01
  -2.349  0.713E-01  0.713E-01
  -2.339  0.583E-01  0.583E-01
  -2.329  0.281E-01  0.281E-01
  -2.319  0.251E-01  0.251E-01
  -2.309  0.258E-01  0.258E-01
  -2.299  0.215E-01  0.215E-01
  -2.289  0.152E-01  0.152E-01
  -2.279  0.133E-01  0.133E-01
  -2.269  0.115E-01  0.115E-01
  -2.259  0.106E-01  0.106E-01
  -2.249  0.109E-01  0.109E-01
  -2.239  0.123E-01  0.123E-01
  -2.229  0.137E-01  0.137E-01
  -2.219  0.152E-01  0.152E-01
  -2.209  0.167E-01  0.167E-01
  -2.199  0.182E-01  0.182E-01
  -2.189  0.197E-01  0.197E-01
  -2.179  0.454E-01  0.454E-01
  -2.169  0.120E-01  0.120E-01
  -2.159  0.212E-01  0.212E-01
  -2.149  0.361E-01  0.361E-01
  -2.139  0.433E-01  0.433E-01
  -2.129  0.461E-01  0.461E-01
  -2.119  0.359E-01  0.359E-01
  -2.109  0.350E-01  0.350E-01
  -2.099  0.768E-01  0.768E-01
  -2.089  0.195E-01  0.195E-01
  -2.079  0.191E-01  0.191E-01
  -2.069  0.188E-01  0.188E-01
  -2.059  0.185E-01  0.185E-01
  -2.049  0.191E-01  0.191E-01
  -2.039  0.195E-01  0.195E-01
  -2.029  0.199E-01  0.199E-01
  -2.019  0.219E-01  0.219E-01
  -2.009  0.225E-01  0.225E-01
  -1.999  0.230E-01  0.230E-01
  -1.989  0.235E-01  0.235E-01
  -1.979  0.239E-01  0.239E-01
  -1.969  0.243E-01  0.243E-01
  -1.959  0.247E-01  0.247E-01
  -1.949  0.250E-01  0.250E-01
  -1.939  0.253E-01  0.253E-01
  -1.929  0.256E-01  0.256E-01
  -1.919  0.258E-01  0.258E-01
  -1.909  0.318E-01  0.318E-01
  -1.899  0.387E-01  0.387E-01
  -1.889  0.455E-01  0.455E-01
  -1.879  0.522E-01  0.522E-01
  -1.869  0.559E-01  0.559E-01
  -1.859  0.116E+00  0.116E+00
  -1.849  0.118E+00  0.118E+00
  -1.839  0.210E+00  0.210E+00
  -1.829  0.732E-01  0.732E-01
  -1.819  0.682E-01  0.682E-01
  -1.809  0.586E-01  0.586E-01
  -1.799  0.463E-01  0.463E-01
  -1.789  0.479E-01  0.479E-01
  -1.779  0.490E-01  0.490E-01
  -1.769  0.496E-01  0.496E-01
  -1.759  0.495E-01  0.495E-01
  -1.749  0.489E-01  0.489E-01
  -1.739  0.477E-01  0.477E-01
  -1.729  0.459E-01  0.459E-01
  -1.719  0.436E-01  0.436E-01
  -1.709  0.407E-01  0.407E-01
  -1.699  0.411E-01  0.411E-01
  -1.689  0.424E-01  0.424E-01
  -1.679  0.437E-01  0.437E-01
  -1.669  0.451E-01  0.451E-01
  -1.659  0.464E-01  0.464E-01
  -1.649  0.478E-01  0.478E-01
  -1.639  0.350E-01  0.350E-01
  -1.629  0.274E-01  0.274E-01
  -1.619  0.250E-01  0.250E-01
  -1.609  0.293E-01  0.293E-01
  -1.599  0.403E-01  0.403E-01
  -1.589  0.607E-01  0.607E-01
  -1.579  0.146E+00  0.146E+00
  -1.569  0.414E-01  0.414E-01
  -1.559  0.215E-01  0.215E-01
  -1.549  0.754E-01  0.754E-01
  -1.539  0.446E-01  0.446E-01
  -1.529  0.417E-01  0.417E-01
  -1.519  0.385E-01  0.385E-01
  -1.509  0.350E-01  0.350E-01
  -1.499  0.312E-01  0.312E-01
  -1.489  0.270E-01  0.270E-01
  -1.479  0.226E-01  0.226E-01
  -1.469  0.178E-01  0.178E-01
  -1.459  0.139E-01  0.139E-01
  -1.449  0.160E-01  0.160E-01
  -1.439  0.183E-01  0.183E-01
  -1.429  0.206E-01  0.206E-01
  -1.419  0.228E-01  0.228E-01
  -1.409  0.249E-01  0.249E-01
  -1.399  0.269E-01  0.269E-01
  -1.389  0.288E-01  0.288E-01
  -1.379  0.307E-01  0.307E-01
  -1.369  0.325E-01  0.325E-01
  -1.359  0.342E-01  0.342E-01
  -1.349  0.358E-01  0.358E-01
  -1.339  0.374E-01  0.374E-01
  -1.329  0.388E-01  0.388E-01
  -1.319  0.205E-01  0.205E-01
  -1.309  0.205E-01  0.205E-01
  -1.299  0.204E-01  0.204E-01
  -1.289  0.204E-01  0.204E-01
  -1.279  0.203E-01  0.203E-01
  -1.269  0.203E-01  0.203E-01
  -1.259  0.203E-01  0.203E-01
  -1.249  0.201E-01  0.201E-01
  -1.239  0.195E-01  0.195E-01
  -1.229  0.189E-01  0.189E-01
  -1.219  0.183E-01  0.183E-01
  -1.209  0.176E-01  0.176E-01
  -1.199  0.170E-01  0.170E-01
  -1.189  0.164E-01  0.164E-01
  -1.179  0.157E-01  0.157E-01
  -1.169  0.151E-01  0.151E-01
  -1.159  0.145E-01  0.145E-01
  -1.149  0.139E-01  0.139E-01
  -1.139  0.134E-01  0.134E-01
  -1.129  0.128E-01  0.128E-01
  -1.119  0.122E-01  0.122E-01
  -1.109  0.117E-01  0.117E-01
  -1.099  0.113E-01  0.113E-01
  -1.089  0.111E-01  0.111E-01
  -1.079  0.110E-01  0.110E-01
  -1.069  0.108E-01  0.108E-01
  -1.059  0.107E-01  0.107E-01
  -1.049  0.106E-01  0.106E-01
  -1.039  0.105E-01  0.105E-01
  -1.029  0.104E-01  0.104E-01
  -1.019  0.103E-01  0.103E-01
  -1.009  0.102E-01  0.102E-01
  -0.999  0.102E-01  0.102E-01
  -0.989  0.101E-01  0.101E-01
  -0.979  0.101E-01  0.101E-01
  -0.969  0.100E-01  0.100E-01
  -0.959  0.100E-01  0.100E-01
  -0.949  0.710E-02  0.710E-02
  -0.939  0.650E-02  0.650E-02
  -0.929  0.592E-02  0.592E-02
  -0.919  0.537E-02  0.537E-02
  -0.909  0.485E-02  0.485E-02
  -0.899  0.435E-02  0.435E-02
  -0.889  0.388E-02  0.388E-02
  -0.879  0.344E-02  0.344E-02
  -0.869  0.303E-02  0.303E-02
  -0.859  0.264E-02  0.264E-02
  -0.849  0.228E-02  0.228E-02
  -0.839  0.194E-02  0.194E-02
  -0.829  0.163E-02  0.163E-02
  -0.819  0.135E-02  0.135E-02
  -0.809  0.109E-02  0.109E-02
  -0.799  0.865E-03  0.865E-03
  -0.789  0.663E-03  0.663E-03
  -0.779  0.488E-03  0.488E-03
  -0.769  0.340E-03  0.340E-03
  -0.759  0.218E-03  0.218E-03
  -0.749  0.123E-03  0.123E-03
  -0.739  0.554E-04  0.554E-04
  -0.729  0.142E-04  0.142E-04
  -0.719  0.000E+00  0.000E+00
  -0.709  0.000E+00  0.000E+00
  -0.699  0.000E+00  0.000E+00
  -0.689  0.000E+00  0.000E+00
  -0.679  0.000E+00  0.000E+00
  -0.669  0.000E+00  0.000E+00
  -0.659  0.000E+00  0.000E+00
  -0.649  0.000E+00  0.000E+00
  -0.639  0.000E+00  0.000E+00
  -0.629  0.000E+00  0.000E+00
  -0.619  0.680E-04  0.680E-04
  -0.609  0.401E-03  0.401E-03
  -0.599  0.713E-03  0.713E-03
  -0.589  0.135E-02  0.135E-02
  -0.579  0.247E-02  0.247E-02
  -0.569  0.385E-02  0.385E-02
  -0.559  0.522E-02  0.522E-02
  -0.549  0.651E-02  0.651E-02
  -0.539  0.772E-02  0.772E-02
  -0.529  0.885E-02  0.885E-02
  -0.519  0.991E-02  0.991E-02
  -0.509  0.109E-01  0.109E-01
  -0.499  0.118E-01  0.118E-01
  -0.489  0.126E-01  0.126E-01
  -0.479  0.133E-01  0.133E-01
  -0.469  0.140E-01  0.140E-01
  -0.459  0.146E-01  0.146E-01
  -0.449  0.151E-01  0.151E-01
  -0.439  0.155E-01  0.155E-01
  -0.429  0.159E-01  0.159E-01
  -0.419  0.221E-01  0.221E-01
  -0.409  0.229E-01  0.229E-01
  -0.399  0.260E-01  0.260E-01
  -0.389  0.268E-01  0.268E-01
  -0.379  0.275E-01  0.275E-01
  -0.369  0.280E-01  0.280E-01
  -0.359  0.312E-01  0.312E-01
  -0.349  0.491E-01  0.491E-01
  -0.339  0.734E-01  0.734E-01
  -0.329  0.968E-01  0.968E-01
  -0.319  0.553E-01  0.553E-01
  -0.309  0.521E-01  0.521E-01
  -0.299  0.492E-01  0.492E-01
  -0.289  0.348E-01  0.348E-01
  -0.279  0.192E-01  0.192E-01
  -0.269  0.191E-01  0.191E-01
  -0.259  0.594E-01  0.594E-01
  -0.249  0.618E-01  0.618E-01
  -0.239  0.666E-01  0.666E-01
  -0.229  0.128E+00  0.128E+00
  -0.219  0.545E-02  0.545E-02
  -0.209  0.535E-02  0.535E-02
  -0.199  0.524E-02  0.524E-02
  -0.189  0.512E-02  0.512E-02
  -0.179  0.498E-02  0.498E-02
  -0.169  0.483E-02  0.483E-02
  -0.159  0.467E-02  0.467E-02
  -0.149  0.449E-02  0.449E-02
  -0.139  0.431E-02  0.431E-02
  -0.129  0.410E-02  0.410E-02
  -0.119  0.389E-02  0.389E-02
  -0.109  0.896E-02  0.896E-02
  -0.099  0.217E-01  0.217E-01
  -0.089  0.489E-01  0.489E-01
  -0.079  0.979E-01  0.979E-01
  -0.069  0.230E+00  0.230E+00
  -0.059  0.417E+00  0.417E+00
  -0.049  0.164E+00  0.164E+00
  -0.039  0.148E+00  0.148E+00
  -0.029  0.130E+00  0.130E+00
  -0.019  0.131E+00  0.131E+00
  -0.009  0.103E+00  0.103E+00
   0.001  0.765E-01  0.765E-01
   0.011  0.571E-01  0.571E-01
   0.021  0.450E-01  0.450E-01
   0.031  0.377E-01  0.377E-01
   0.041  0.361E-01  0.361E-01
   0.051  0.404E-01  0.404E-01
   0.061  0.599E-01  0.599E-01
   0.071  0.273E-01  0.273E-01
   0.081  0.761E-02  0.761E-02
   0.091  0.581E-02  0.581E-02
   0.101  0.610E-02  0.610E-02
   0.111  0.639E-02  0.639E-02
   0.121  0.667E-02  0.667E-02
   0.131  0.696E-02  0.696E-02
   0.141  0.725E-02  0.725E-02
   0.151  0.754E-02  0.754E-02
   0.161  0.783E-02  0.783E-02
   0.171  0.811E-02  0.811E-02
   0.181  0.840E-02  0.840E-02
   0.191  0.869E-02  0.869E-02
   0.201  0.898E-02  0.898E-02
   0.211  0.927E-02  0.927E-02
   0.221  0.956E-02  0.956E-02
   0.231  0.985E-02  0.985E-02
   0.241  0.101E-01  0.101E-01
   0.251  0.104E-01  0.104E-01
   0.261  0.107E-01  0.107E-01
   0.271  0.110E-01  0.110E-01
   0.281  0.113E-01  0.113E-01
   0.291  0.116E-01  0.116E-01
   0.301  0.119E-01  0.119E-01
   0.311  0.122E-01  0.122E-01
   0.321  0.125E-01  0.125E-01
   0.331  0.128E-01  0.128E-01
   0.341  0.130E-01  0.130E-01
   0.351  0.133E-01  0.133E-01
   0.361  0.136E-01  0.136E-01
   0.371  0.139E-01  0.139E-01
   0.381  0.307E-01  0.307E-01
   0.391  0.955E-01  0.955E-01
   0.401  0.144E+00  0.144E+00
   0.411  0.529E-01  0.529E-01
   0.421  0.569E-01  0.569E-01
   0.431  0.608E-01  0.608E-01
   0.441  0.648E-01  0.648E-01
   0.451  0.691E-01  0.691E-01
   0.461  0.760E-01  0.760E-01
   0.471  0.130E+00  0.130E+00
   0.481  0.175E+00  0.175E+00
   0.491  0.201E+00  0.201E+00
   0.501  0.207E+00  0.207E+00
   0.511  0.193E+00  0.193E+00
   0.521  0.167E+00  0.167E+00
   0.531  0.167E+00  0.167E+00
   0.541  0.175E+00  0.175E+00
   0.551  0.166E+00  0.166E+00
   0.561  0.135E+00  0.135E+00
   0.571  0.113E+00  0.113E+00
   0.581  0.116E+00  0.116E+00
   0.591  0.118E+00  0.118E+00
   0.601  0.129E+00  0.129E+00
   0.611  0.137E+00  0.137E+00
   0.621  0.136E+00  0.136E+00
   0.631  0.125E+00  0.125E+00
   0.641  0.119E+00  0.119E+00
   0.651  0.115E+00  0.115E+00
   0.661  0.107E+00  0.107E+00
   0.671  0.101E+00  0.101E+00
   0.681  0.964E-01  0.964E-01
   0.691  0.929E-01  0.929E-01
   0.701  0.923E-01  0.923E-01
   0.711  0.968E-01  0.968E-01
   0.721  0.102E+00  0.102E+00
   0.731  0.109E+00  0.109E+00
   0.741  0.117E+00  0.117E+00
   0.751  0.144E+00  0.144E+00
   0.761  0.141E+00  0.141E+00
   0.771  0.141E+00  0.141E+00
   0.781  0.143E+00  0.143E+00
   0.791  0.146E+00  0.146E+00
   0.801  0.143E+00  0.143E+00
   0.811  0.143E+00  0.143E+00
   0.821  0.145E+00  0.145E+00
   0.831  0.175E+00  0.175E+00
   0.841  0.169E+00  0.169E+00
   0.851  0.163E+00  0.163E+00
   0.861  0.158E+00  0.158E+00
   0.871  0.219E+00  0.219E+00
   0.881  0.234E+00  0.234E+00
   0.891  0.226E+00  0.226E+00
   0.901  0.191E+00  0.191E+00
   0.911  0.225E+00  0.225E+00
   0.921  0.245E+00  0.245E+00
   0.931  0.255E+00  0.255E+00
   0.941  0.257E+00  0.257E+00
   0.951  0.258E+00  0.258E+00
   0.961  0.258E+00  0.258E+00
   0.971  0.173E+00  0.173E+00
   0.981  0.160E+00  0.160E+00
   0.991  0.129E+00  0.129E+00
   1.001  0.138E+00  0.138E+00
   1.011  0.150E+00  0.150E+00
   1.021  0.166E+00  0.166E+00
   1.031  0.678E+00  0.678E+00
   1.041  0.668E-01  0.668E-01
   1.051  0.100E+00  0.100E+00
   1.061  0.982E-01  0.982E-01
   1.071  0.930E-01  0.930E-01
   1.081  0.847E-01  0.847E-01
   1.091  0.752E-01  0.752E-01
   1.101  0.676E-01  0.676E-01
   1.111  0.182E+00  0.182E+00
   1.121  0.956E-01  0.956E-01
   1.131  0.921E-01  0.921E-01
   1.141  0.893E-01  0.893E-01
   1.151  0.878E-01  0.878E-01
   1.161  0.876E-01  0.876E-01
   1.171  0.926E-01  0.926E-01
   1.181  0.100E+00  0.100E+00
   1.191  0.107E+00  0.107E+00
   1.201  0.117E+00  0.117E+00
   1.211  0.127E+00  0.127E+00
   1.221  0.135E+00  0.135E+00
   1.231  0.138E+00  0.138E+00
   1.241  0.140E+00  0.140E+00
   1.251  0.150E+00  0.150E+00
   1.261  0.168E+00  0.168E+00
   1.271  0.173E+00  0.173E+00
   1.281  0.157E+00  0.157E+00
   1.291  0.101E+00  0.101E+00
   1.301  0.112E+00  0.112E+00
   1.311  0.113E+00  0.113E+00
   1.321  0.115E+00  0.115E+00
   1.331  0.871E-01  0.871E-01
   1.341  0.906E-01  0.906E-01
   1.351  0.144E+00  0.144E+00
   1.361  0.192E+00  0.192E+00
   1.371  0.185E+00  0.185E+00
   1.381  0.173E+00  0.173E+00
   1.391  0.165E+00  0.165E+00
   1.401  0.155E+00  0.155E+00
   1.411  0.143E+00  0.143E+00
   1.421  0.136E+00  0.136E+00
   1.431  0.204E+00  0.204E+00
   1.441  0.203E+00  0.203E+00
   1.451  0.183E+00  0.183E+00
   1.461  0.143E+00  0.143E+00
   1.471  0.877E-01  0.877E-01
   1.481  0.731E-01  0.731E-01
   1.491  0.745E-01  0.745E-01
   1.501  0.111E+00  0.111E+00
   1.511  0.187E+00  0.187E+00
   1.521  0.215E+00  0.215E+00
   1.531  0.195E+00  0.195E+00
   1.541  0.110E+00  0.110E+00
   1.551  0.111E+00  0.111E+00
   1.561  0.132E+00  0.132E+00
   1.571  0.130E+00  0.130E+00
   1.581  0.123E+00  0.123E+00
   1.591  0.129E+00  0.129E+00
   1.601  0.139E+00  0.139E+00
   1.611  0.150E+00  0.150E+00
   1.621  0.115E+00  0.115E+00
   1.631  0.121E+00  0.121E+00
   1.641  0.129E+00  0.129E+00
   1.651  0.138E+00  0.138E+00
   1.661  0.149E+00  0.149E+00
   1.671  0.158E+00  0.158E+00
   1.681  0.166E+00  0.166E+00
   1.691  0.172E+00  0.172E+00
   1.701  0.174E+00  0.174E+00
   1.711  0.173E+00  0.173E+00
   1.721  0.172E+00  0.172E+00
   1.731  0.977E-01  0.977E-01
   1.741  0.841E-01  0.841E-01
   1.751  0.716E-01  0.716E-01
   1.761  0.603E-01  0.603E-01
   1.771  0.502E-01  0.502E-01
   1.781  0.547E-01  0.547E-01
   1.791  0.426E-01  0.426E-01
   1.801  0.323E-01  0.323E-01
   1.811  0.237E-01  0.237E-01
   1.821  0.170E-01  0.170E-01
   1.831  0.120E-01  0.120E-01
   1.841  0.851E-02  0.851E-02
   1.851  0.582E-02  0.582E-02
   1.861  0.404E-02  0.404E-02
   1.871  0.296E-02  0.296E-02
   1.881  0.201E-02  0.201E-02
   1.891  0.122E-02  0.122E-02
   1.901  0.575E-03  0.575E-03
   1.911  0.772E-04  0.772E-04
   1.921  0.000E+00  0.000E+00
