# E (eV)   ldos(E)   pdos(E)    pdos(E)    pdos(E)   
 -15.919  0.000E+00  0.000E+00  0.000E+00  0.000E+00
 -15.909  0.455E-02  0.451E-02  0.193E-04  0.193E-04
 -15.899  0.908E-02  0.893E-02  0.771E-04  0.771E-04
 -15.889  0.665E-02  0.649E-02  0.845E-04  0.845E-04
 -15.879  0.701E-02  0.678E-02  0.114E-03  0.114E-03
 -15.869  0.737E-02  0.707E-02  0.146E-03  0.146E-03
 -15.859  0.772E-02  0.735E-02  0.181E-03  0.181E-03
 -15.849  0.806E-02  0.763E-02  0.218E-03  0.218E-03
 -15.839  0.841E-02  0.790E-02  0.257E-03  0.257E-03
 -15.829  0.853E-02  0.795E-02  0.292E-03  0.292E-03
 -15.819  0.806E-02  0.745E-02  0.303E-03  0.303E-03
 -15.809  0.758E-02  0.696E-02  0.309E-03  0.309E-03
 -15.799  0.731E-02  0.667E-02  0.320E-03  0.320E-03
 -15.789  0.743E-02  0.674E-02  0.349E-03  0.349E-03
 -15.779  0.755E-02  0.679E-02  0.380E-03  0.380E-03
 -15.769  0.766E-02  0.683E-02  0.413E-03  0.413E-03
 -15.759  0.775E-02  0.686E-02  0.447E-03  0.447E-03
 -15.749  0.783E-02  0.686E-02  0.483E-03  0.483E-03
 -15.739  0.790E-02  0.686E-02  0.521E-03  0.521E-03
 -15.729  0.795E-02  0.683E-02  0.561E-03  0.561E-03
 -15.719  0.800E-02  0.679E-02  0.602E-03  0.602E-03
 -15.709  0.157E-01  0.132E-01  0.125E-02  0.125E-02
 -15.699  0.119E-01  0.972E-02  0.107E-02  0.107E-02
 -15.689  0.835E-02  0.664E-02  0.857E-03  0.857E-03
 -15.679  0.516E-02  0.396E-02  0.599E-03  0.599E-03
 -15.669  0.255E-02  0.188E-02  0.336E-03  0.336E-03
 -15.659  0.202E-02  0.141E-02  0.307E-03  0.307E-03
 -15.649  0.155E-02  0.100E-02  0.272E-03  0.272E-03
 -15.639  0.149E-02  0.997E-03  0.248E-03  0.248E-03
 -15.629  0.199E-02  0.150E-02  0.244E-03  0.244E-03
 -15.619  0.251E-02  0.203E-02  0.240E-03  0.240E-03
 -15.609  0.305E-02  0.258E-02  0.234E-03  0.234E-03
 -15.599  0.362E-02  0.316E-02  0.228E-03  0.228E-03
 -15.589  0.427E-02  0.375E-02  0.260E-03  0.260E-03
 -15.579  0.494E-02  0.430E-02  0.321E-03  0.321E-03
 -15.569  0.558E-02  0.481E-02  0.387E-03  0.387E-03
 -15.559  0.175E-01  0.165E-01  0.533E-03  0.533E-03
 -15.549  0.365E-01  0.334E-01  0.158E-02  0.158E-02
 -15.539  0.548E-02  0.453E-02  0.474E-03  0.474E-03
 -15.529  0.534E-02  0.435E-02  0.496E-03  0.496E-03
 -15.519  0.522E-02  0.419E-02  0.517E-03  0.517E-03
 -15.509  0.512E-02  0.405E-02  0.537E-03  0.537E-03
 -15.499  0.505E-02  0.394E-02  0.555E-03  0.555E-03
 -15.489  0.499E-02  0.385E-02  0.571E-03  0.571E-03
 -15.479  0.495E-02  0.378E-02  0.586E-03  0.586E-03
 -15.469  0.494E-02  0.374E-02  0.598E-03  0.598E-03
 -15.459  0.494E-02  0.372E-02  0.610E-03  0.610E-03
 -15.449  0.497E-02  0.373E-02  0.620E-03  0.620E-03
 -15.439  0.503E-02  0.377E-02  0.631E-03  0.631E-03
 -15.429  0.510E-02  0.382E-02  0.641E-03  0.641E-03
 -15.419  0.519E-02  0.389E-02  0.650E-03  0.650E-03
 -15.409  0.530E-02  0.399E-02  0.658E-03  0.658E-03
 -15.399  0.543E-02  0.410E-02  0.665E-03  0.665E-03
 -15.389  0.557E-02  0.423E-02  0.672E-03  0.672E-03
 -15.379  0.574E-02  0.438E-02  0.678E-03  0.678E-03
 -15.369  0.592E-02  0.455E-02  0.683E-03  0.683E-03
 -15.359  0.816E-02  0.627E-02  0.947E-03  0.947E-03
 -15.349  0.777E-02  0.593E-02  0.922E-03  0.922E-03
 -15.339  0.737E-02  0.557E-02  0.898E-03  0.898E-03
 -15.329  0.695E-02  0.520E-02  0.874E-03  0.874E-03
 -15.319  0.657E-02  0.485E-02  0.856E-03  0.856E-03
 -15.309  0.621E-02  0.452E-02  0.844E-03  0.844E-03
 -15.299  0.584E-02  0.417E-02  0.834E-03  0.834E-03
 -15.289  0.579E-02  0.406E-02  0.861E-03  0.861E-03
 -15.279  0.575E-02  0.397E-02  0.892E-03  0.892E-03
 -15.269  0.572E-02  0.387E-02  0.923E-03  0.923E-03
 -15.259  0.568E-02  0.377E-02  0.954E-03  0.954E-03
 -15.249  0.563E-02  0.366E-02  0.986E-03  0.986E-03
 -15.239  0.559E-02  0.355E-02  0.102E-02  0.102E-02
 -15.229  0.554E-02  0.344E-02  0.105E-02  0.105E-02
 -15.219  0.549E-02  0.332E-02  0.108E-02  0.108E-02
 -15.209  0.544E-02  0.321E-02  0.112E-02  0.112E-02
 -15.199  0.423E-02  0.224E-02  0.997E-03  0.997E-03
 -15.189  0.415E-02  0.211E-02  0.102E-02  0.102E-02
 -15.179  0.407E-02  0.197E-02  0.105E-02  0.105E-02
 -15.169  0.397E-02  0.183E-02  0.107E-02  0.107E-02
 -15.159  0.388E-02  0.168E-02  0.110E-02  0.110E-02
 -15.149  0.378E-02  0.153E-02  0.113E-02  0.113E-02
 -15.139  0.353E-02  0.138E-02  0.108E-02  0.108E-02
 -15.129  0.400E-02  0.220E-02  0.900E-03  0.900E-03
 -15.119  0.447E-02  0.301E-02  0.729E-03  0.729E-03
 -15.109  0.497E-02  0.371E-02  0.633E-03  0.633E-03
 -15.099  0.505E-02  0.386E-02  0.596E-03  0.596E-03
 -15.089  0.512E-02  0.400E-02  0.561E-03  0.561E-03
 -15.079  0.520E-02  0.414E-02  0.528E-03  0.528E-03
 -15.069  0.527E-02  0.427E-02  0.498E-03  0.498E-03
 -15.059  0.533E-02  0.439E-02  0.470E-03  0.470E-03
 -15.049  0.540E-02  0.451E-02  0.445E-03  0.445E-03
 -15.039  0.546E-02  0.462E-02  0.421E-03  0.421E-03
 -15.029  0.602E-02  0.473E-02  0.644E-03  0.644E-03
 -15.019  0.989E-02  0.839E-02  0.750E-03  0.750E-03
 -15.009  0.912E-02  0.767E-02  0.728E-03  0.728E-03
 -14.999  0.840E-02  0.699E-02  0.703E-03  0.703E-03
 -14.989  0.771E-02  0.636E-02  0.677E-03  0.677E-03
 -14.979  0.706E-02  0.577E-02  0.649E-03  0.649E-03
 -14.969  0.645E-02  0.522E-02  0.618E-03  0.618E-03
 -14.959  0.588E-02  0.471E-02  0.585E-03  0.585E-03
 -14.949  0.535E-02  0.424E-02  0.551E-03  0.551E-03
 -14.939  0.485E-02  0.382E-02  0.513E-03  0.513E-03
 -14.929  0.439E-02  0.344E-02  0.474E-03  0.474E-03
 -14.919  0.397E-02  0.310E-02  0.433E-03  0.433E-03
 -14.909  0.361E-02  0.283E-02  0.390E-03  0.390E-03
 -14.899  0.336E-02  0.262E-02  0.372E-03  0.372E-03
 -14.889  0.317E-02  0.241E-02  0.378E-03  0.378E-03
 -14.879  0.298E-02  0.222E-02  0.383E-03  0.383E-03
 -14.869  0.287E-02  0.203E-02  0.420E-03  0.420E-03
 -14.859  0.667E-02  0.451E-02  0.108E-02  0.108E-02
 -14.849  0.563E-02  0.371E-02  0.960E-03  0.960E-03
 -14.839  0.463E-02  0.297E-02  0.832E-03  0.832E-03
 -14.829  0.368E-02  0.229E-02  0.696E-03  0.696E-03
 -14.819  0.276E-02  0.166E-02  0.554E-03  0.554E-03
 -14.809  0.189E-02  0.108E-02  0.406E-03  0.406E-03
 -14.799  0.208E-02  0.121E-02  0.434E-03  0.434E-03
 -14.789  0.246E-02  0.146E-02  0.499E-03  0.499E-03
 -14.779  0.281E-02  0.168E-02  0.564E-03  0.564E-03
 -14.769  0.313E-02  0.187E-02  0.629E-03  0.629E-03
 -14.759  0.343E-02  0.204E-02  0.694E-03  0.694E-03
 -14.749  0.371E-02  0.219E-02  0.759E-03  0.759E-03
 -14.739  0.396E-02  0.231E-02  0.824E-03  0.824E-03
 -14.729  0.418E-02  0.240E-02  0.889E-03  0.889E-03
 -14.719  0.438E-02  0.247E-02  0.953E-03  0.953E-03
 -14.709  0.455E-02  0.251E-02  0.102E-02  0.102E-02
 -14.699  0.360E-02  0.253E-02  0.533E-03  0.533E-03
 -14.689  0.289E-02  0.194E-02  0.474E-03  0.474E-03
 -14.679  0.289E-02  0.195E-02  0.473E-03  0.473E-03
 -14.669  0.290E-02  0.195E-02  0.472E-03  0.472E-03
 -14.659  0.290E-02  0.196E-02  0.471E-03  0.471E-03
 -14.649  0.290E-02  0.196E-02  0.470E-03  0.470E-03
 -14.639  0.290E-02  0.196E-02  0.470E-03  0.470E-03
 -14.629  0.290E-02  0.196E-02  0.469E-03  0.469E-03
 -14.619  0.289E-02  0.196E-02  0.469E-03  0.469E-03
 -14.609  0.289E-02  0.195E-02  0.469E-03  0.469E-03
 -14.599  0.288E-02  0.194E-02  0.469E-03  0.469E-03
 -14.589  0.287E-02  0.194E-02  0.469E-03  0.469E-03
 -14.579  0.286E-02  0.193E-02  0.469E-03  0.469E-03
 -14.569  0.285E-02  0.191E-02  0.469E-03  0.469E-03
 -14.559  0.527E-02  0.426E-02  0.504E-03  0.504E-03
 -14.549  0.110E-01  0.899E-02  0.100E-02  0.100E-02
 -14.539  0.137E-01  0.949E-02  0.209E-02  0.209E-02
 -14.529  0.294E-02  0.189E-02  0.525E-03  0.525E-03
 -14.519  0.290E-02  0.185E-02  0.523E-03  0.523E-03
 -14.509  0.286E-02  0.182E-02  0.521E-03  0.521E-03
 -14.499  0.283E-02  0.179E-02  0.519E-03  0.519E-03
 -14.489  0.279E-02  0.176E-02  0.516E-03  0.516E-03
 -14.479  0.276E-02  0.174E-02  0.512E-03  0.512E-03
 -14.469  0.273E-02  0.172E-02  0.509E-03  0.509E-03
 -14.459  0.271E-02  0.170E-02  0.505E-03  0.505E-03
 -14.449  0.273E-02  0.172E-02  0.508E-03  0.508E-03
 -14.439  0.277E-02  0.174E-02  0.514E-03  0.514E-03
 -14.429  0.280E-02  0.177E-02  0.519E-03  0.519E-03
 -14.419  0.283E-02  0.179E-02  0.524E-03  0.524E-03
 -14.409  0.286E-02  0.180E-02  0.530E-03  0.530E-03
 -14.399  0.288E-02  0.181E-02  0.535E-03  0.535E-03
 -14.389  0.290E-02  0.182E-02  0.540E-03  0.540E-03
 -14.379  0.291E-02  0.182E-02  0.546E-03  0.546E-03
 -14.369  0.292E-02  0.182E-02  0.551E-03  0.551E-03
 -14.359  0.293E-02  0.181E-02  0.557E-03  0.557E-03
 -14.349  0.293E-02  0.180E-02  0.562E-03  0.562E-03
 -14.339  0.292E-02  0.179E-02  0.567E-03  0.567E-03
 -14.329  0.290E-02  0.176E-02  0.569E-03  0.569E-03
 -14.319  0.288E-02  0.174E-02  0.571E-03  0.571E-03
 -14.309  0.288E-02  0.173E-02  0.577E-03  0.577E-03
 -14.299  0.291E-02  0.173E-02  0.587E-03  0.587E-03
 -14.289  0.294E-02  0.174E-02  0.598E-03  0.598E-03
 -14.279  0.297E-02  0.175E-02  0.609E-03  0.609E-03
 -14.269  0.300E-02  0.176E-02  0.620E-03  0.620E-03
 -14.259  0.303E-02  0.177E-02  0.631E-03  0.631E-03
 -14.249  0.306E-02  0.178E-02  0.642E-03  0.642E-03
 -14.239  0.309E-02  0.179E-02  0.653E-03  0.653E-03
 -14.229  0.313E-02  0.180E-02  0.665E-03  0.665E-03
 -14.219  0.375E-02  0.215E-02  0.800E-03  0.800E-03
 -14.209  0.303E-02  0.160E-02  0.712E-03  0.712E-03
 -14.199  0.240E-02  0.118E-02  0.608E-03  0.608E-03
 -14.189  0.186E-02  0.882E-03  0.489E-03  0.489E-03
 -14.179  0.142E-02  0.710E-03  0.354E-03  0.354E-03
 -14.169  0.109E-02  0.663E-03  0.212E-03  0.212E-03
 -14.159  0.292E-02  0.219E-02  0.363E-03  0.363E-03
 -14.149  0.422E-02  0.310E-02  0.560E-03  0.560E-03
 -14.139  0.412E-02  0.295E-02  0.589E-03  0.589E-03
 -14.129  0.372E-02  0.261E-02  0.559E-03  0.559E-03
 -14.119  0.334E-02  0.228E-02  0.528E-03  0.528E-03
 -14.109  0.297E-02  0.197E-02  0.498E-03  0.498E-03
 -14.099  0.260E-02  0.167E-02  0.467E-03  0.467E-03
 -14.089  0.226E-02  0.139E-02  0.436E-03  0.436E-03
 -14.079  0.192E-02  0.111E-02  0.404E-03  0.404E-03
 -14.069  0.884E-03  0.455E-03  0.214E-03  0.214E-03
 -14.059  0.894E-03  0.457E-03  0.218E-03  0.218E-03
 -14.049  0.902E-03  0.459E-03  0.221E-03  0.221E-03
 -14.039  0.909E-03  0.461E-03  0.224E-03  0.224E-03
 -14.029  0.914E-03  0.463E-03  0.226E-03  0.226E-03
 -14.019  0.918E-03  0.464E-03  0.227E-03  0.227E-03
 -14.009  0.921E-03  0.465E-03  0.228E-03  0.228E-03
 -13.999  0.922E-03  0.466E-03  0.228E-03  0.228E-03
 -13.989  0.922E-03  0.467E-03  0.228E-03  0.228E-03
 -13.979  0.920E-03  0.467E-03  0.227E-03  0.227E-03
 -13.969  0.917E-03  0.468E-03  0.225E-03  0.225E-03
 -13.959  0.913E-03  0.468E-03  0.223E-03  0.223E-03
 -13.949  0.907E-03  0.468E-03  0.220E-03  0.220E-03
 -13.939  0.899E-03  0.467E-03  0.216E-03  0.216E-03
 -13.929  0.891E-03  0.467E-03  0.212E-03  0.212E-03
 -13.919  0.253E-02  0.145E-02  0.541E-03  0.541E-03
 -13.909  0.250E-02  0.144E-02  0.533E-03  0.533E-03
 -13.899  0.245E-02  0.141E-02  0.523E-03  0.523E-03
 -13.889  0.238E-02  0.136E-02  0.512E-03  0.512E-03
 -13.879  0.229E-02  0.129E-02  0.500E-03  0.500E-03
 -13.869  0.218E-02  0.120E-02  0.487E-03  0.487E-03
 -13.859  0.161E-02  0.880E-03  0.365E-03  0.365E-03
 -13.849  0.108E-02  0.643E-03  0.218E-03  0.218E-03
 -13.839  0.106E-02  0.702E-03  0.177E-03  0.177E-03
 -13.829  0.150E-02  0.100E-02  0.249E-03  0.249E-03
 -13.819  0.188E-02  0.126E-02  0.308E-03  0.308E-03
 -13.809  0.220E-02  0.149E-02  0.355E-03  0.355E-03
 -13.799  0.246E-02  0.168E-02  0.389E-03  0.389E-03
 -13.789  0.266E-02  0.184E-02  0.410E-03  0.410E-03
 -13.779  0.280E-02  0.196E-02  0.419E-03  0.419E-03
 -13.769  0.569E-02  0.387E-02  0.908E-03  0.908E-03
 -13.759  0.299E-02  0.206E-02  0.463E-03  0.463E-03
 -13.749  0.198E-02  0.121E-02  0.383E-03  0.383E-03
 -13.739  0.174E-02  0.106E-02  0.336E-03  0.336E-03
 -13.729  0.152E-02  0.931E-03  0.294E-03  0.294E-03
 -13.719  0.132E-02  0.810E-03  0.257E-03  0.257E-03
 -13.709  0.117E-02  0.701E-03  0.237E-03  0.237E-03
 -13.699  0.105E-02  0.607E-03  0.221E-03  0.221E-03
 -13.689  0.943E-03  0.525E-03  0.209E-03  0.209E-03
 -13.679  0.878E-03  0.475E-03  0.202E-03  0.202E-03
 -13.669  0.882E-03  0.469E-03  0.206E-03  0.206E-03
 -13.659  0.887E-03  0.464E-03  0.211E-03  0.211E-03
 -13.649  0.892E-03  0.460E-03  0.216E-03  0.216E-03
 -13.639  0.967E-03  0.460E-03  0.253E-03  0.253E-03
 -13.629  0.104E-02  0.464E-03  0.288E-03  0.288E-03
 -13.619  0.112E-02  0.472E-03  0.324E-03  0.324E-03
 -13.609  0.120E-02  0.484E-03  0.356E-03  0.356E-03
 -13.599  0.127E-02  0.500E-03  0.384E-03  0.384E-03
 -13.589  0.134E-02  0.520E-03  0.408E-03  0.408E-03
 -13.579  0.140E-02  0.545E-03  0.429E-03  0.429E-03
 -13.569  0.146E-02  0.573E-03  0.446E-03  0.446E-03
 -13.559  0.152E-02  0.605E-03  0.459E-03  0.459E-03
 -13.549  0.158E-02  0.642E-03  0.468E-03  0.468E-03
 -13.539  0.163E-02  0.682E-03  0.473E-03  0.473E-03
 -13.529  0.168E-02  0.726E-03  0.474E-03  0.474E-03
 -13.519  0.172E-02  0.775E-03  0.472E-03  0.472E-03
 -13.509  0.138E-02  0.624E-03  0.378E-03  0.378E-03
 -13.499  0.135E-02  0.589E-03  0.382E-03  0.382E-03
 -13.489  0.133E-02  0.558E-03  0.388E-03  0.388E-03
 -13.479  0.306E-02  0.172E-02  0.674E-03  0.674E-03
 -13.469  0.124E-02  0.469E-03  0.386E-03  0.386E-03
 -13.459  0.115E-02  0.390E-03  0.377E-03  0.377E-03
 -13.449  0.113E-02  0.380E-03  0.374E-03  0.374E-03
 -13.439  0.111E-02  0.372E-03  0.370E-03  0.370E-03
 -13.429  0.109E-02  0.367E-03  0.363E-03  0.363E-03
 -13.419  0.106E-02  0.363E-03  0.351E-03  0.351E-03
 -13.409  0.104E-02  0.359E-03  0.339E-03  0.339E-03
 -13.399  0.101E-02  0.355E-03  0.327E-03  0.327E-03
 -13.389  0.985E-03  0.352E-03  0.317E-03  0.317E-03
 -13.379  0.962E-03  0.349E-03  0.306E-03  0.306E-03
 -13.369  0.930E-03  0.343E-03  0.293E-03  0.293E-03
 -13.359  0.893E-03  0.336E-03  0.279E-03  0.279E-03
 -13.349  0.856E-03  0.328E-03  0.264E-03  0.264E-03
 -13.339  0.822E-03  0.322E-03  0.250E-03  0.250E-03
 -13.329  0.805E-03  0.323E-03  0.241E-03  0.241E-03
 -13.319  0.787E-03  0.324E-03  0.232E-03  0.232E-03
 -13.309  0.770E-03  0.324E-03  0.223E-03  0.223E-03
 -13.299  0.752E-03  0.325E-03  0.213E-03  0.213E-03
 -13.289  0.734E-03  0.325E-03  0.204E-03  0.204E-03
 -13.279  0.715E-03  0.326E-03  0.195E-03  0.195E-03
 -13.269  0.905E-03  0.407E-03  0.249E-03  0.249E-03
 -13.259  0.900E-03  0.405E-03  0.248E-03  0.248E-03
 -13.249  0.896E-03  0.401E-03  0.247E-03  0.247E-03
 -13.239  0.892E-03  0.397E-03  0.248E-03  0.248E-03
 -13.229  0.888E-03  0.392E-03  0.248E-03  0.248E-03
 -13.219  0.885E-03  0.385E-03  0.250E-03  0.250E-03
 -13.209  0.882E-03  0.378E-03  0.252E-03  0.252E-03
 -13.199  0.879E-03  0.370E-03  0.255E-03  0.255E-03
 -13.189  0.877E-03  0.361E-03  0.258E-03  0.258E-03
 -13.179  0.875E-03  0.352E-03  0.262E-03  0.262E-03
 -13.169  0.873E-03  0.341E-03  0.266E-03  0.266E-03
 -13.159  0.874E-03  0.332E-03  0.271E-03  0.271E-03
 -13.149  0.879E-03  0.326E-03  0.276E-03  0.276E-03
 -13.139  0.119E-02  0.390E-03  0.397E-03  0.397E-03
 -13.129  0.159E-02  0.435E-03  0.578E-03  0.578E-03
 -13.119  0.209E-02  0.457E-03  0.817E-03  0.817E-03
 -13.109  0.157E-02  0.400E-03  0.584E-03  0.584E-03
 -13.099  0.133E-02  0.388E-03  0.471E-03  0.471E-03
 -13.089  0.117E-02  0.313E-03  0.428E-03  0.428E-03
 -13.079  0.105E-02  0.179E-03  0.435E-03  0.435E-03
 -13.069  0.101E-02  0.143E-03  0.432E-03  0.432E-03
 -13.059  0.853E-03  0.112E-03  0.371E-03  0.371E-03
 -13.049  0.702E-03  0.853E-04  0.309E-03  0.309E-03
 -13.039  0.567E-03  0.739E-04  0.247E-03  0.247E-03
 -13.029  0.439E-03  0.707E-04  0.184E-03  0.184E-03
 -13.019  0.568E-04  0.520E-14  0.284E-04  0.284E-04
 -13.009  0.621E-04  0.246E-08  0.311E-04  0.311E-04
 -12.999  0.747E-04  0.796E-07  0.373E-04  0.373E-04
 -12.989  0.102E-03  0.844E-05  0.470E-04  0.470E-04
 -12.979  0.171E-03  0.437E-04  0.634E-04  0.634E-04
 -12.969  0.238E-03  0.733E-04  0.824E-04  0.824E-04
 -12.959  0.305E-03  0.972E-04  0.104E-03  0.104E-03
 -12.949  0.405E-03  0.117E-03  0.144E-03  0.144E-03
 -12.939  0.506E-03  0.137E-03  0.185E-03  0.185E-03
 -12.929  0.600E-03  0.153E-03  0.223E-03  0.223E-03
 -12.919  0.686E-03  0.166E-03  0.260E-03  0.260E-03
 -12.909  0.842E-03  0.174E-03  0.334E-03  0.334E-03
 -12.899  0.110E-02  0.222E-03  0.438E-03  0.438E-03
 -12.889  0.788E-03  0.192E-03  0.298E-03  0.298E-03
 -12.879  0.744E-03  0.191E-03  0.276E-03  0.276E-03
 -12.869  0.705E-03  0.190E-03  0.258E-03  0.258E-03
 -12.859  0.672E-03  0.188E-03  0.242E-03  0.242E-03
 -12.849  0.644E-03  0.186E-03  0.229E-03  0.229E-03
 -12.839  0.629E-03  0.183E-03  0.223E-03  0.223E-03
 -12.829  0.665E-03  0.184E-03  0.240E-03  0.240E-03
 -12.819  0.706E-03  0.186E-03  0.260E-03  0.260E-03
 -12.809  0.752E-03  0.189E-03  0.282E-03  0.282E-03
 -12.799  0.675E-03  0.178E-03  0.248E-03  0.248E-03
 -12.789  0.669E-03  0.173E-03  0.248E-03  0.248E-03
 -12.779  0.101E-02  0.209E-03  0.403E-03  0.403E-03
 -12.769  0.104E-02  0.205E-03  0.417E-03  0.417E-03
 -12.759  0.472E-03  0.856E-04  0.193E-03  0.193E-03
 -12.749  0.448E-03  0.767E-04  0.186E-03  0.186E-03
 -12.739  0.424E-03  0.687E-04  0.178E-03  0.178E-03
 -12.729  0.399E-03  0.616E-04  0.169E-03  0.169E-03
 -12.719  0.374E-03  0.554E-04  0.159E-03  0.159E-03
 -12.709  0.348E-03  0.502E-04  0.149E-03  0.149E-03
 -12.699  0.322E-03  0.460E-04  0.138E-03  0.138E-03
 -12.689  0.297E-03  0.426E-04  0.127E-03  0.127E-03
 -12.679  0.278E-03  0.401E-04  0.119E-03  0.119E-03
 -12.669  0.257E-03  0.381E-04  0.110E-03  0.110E-03
 -12.659  0.235E-03  0.368E-04  0.992E-04  0.992E-04
 -12.649  0.213E-03  0.361E-04  0.885E-04  0.885E-04
 -12.639  0.215E-03  0.357E-04  0.899E-04  0.899E-04
 -12.629  0.225E-03  0.388E-04  0.932E-04  0.932E-04
 -12.619  0.246E-03  0.420E-04  0.102E-03  0.102E-03
 -12.609  0.278E-03  0.447E-04  0.117E-03  0.117E-03
 -12.599  0.321E-03  0.469E-04  0.137E-03  0.137E-03
 -12.589  0.375E-03  0.486E-04  0.163E-03  0.163E-03
 -12.579  0.439E-03  0.498E-04  0.195E-03  0.195E-03
 -12.569  0.239E-03  0.319E-04  0.104E-03  0.104E-03
 -12.559  0.237E-03  0.303E-04  0.104E-03  0.104E-03
 -12.549  0.234E-03  0.284E-04  0.103E-03  0.103E-03
 -12.539  0.228E-03  0.261E-04  0.101E-03  0.101E-03
 -12.529  0.220E-03  0.235E-04  0.984E-04  0.984E-04
 -12.519  0.253E-03  0.294E-04  0.112E-03  0.112E-03
 -12.509  0.262E-03  0.314E-04  0.115E-03  0.115E-03
 -12.499  0.255E-03  0.307E-04  0.112E-03  0.112E-03
 -12.489  0.248E-03  0.297E-04  0.109E-03  0.109E-03
 -12.479  0.242E-03  0.284E-04  0.107E-03  0.107E-03
 -12.469  0.236E-03  0.270E-04  0.104E-03  0.104E-03
 -12.459  0.230E-03  0.253E-04  0.102E-03  0.102E-03
 -12.449  0.224E-03  0.234E-04  0.100E-03  0.100E-03
 -12.439  0.219E-03  0.212E-04  0.987E-04  0.987E-04
 -12.429  0.215E-03  0.188E-04  0.980E-04  0.980E-04
 -12.419  0.207E-03  0.161E-04  0.954E-04  0.954E-04
 -12.409  0.198E-03  0.136E-04  0.924E-04  0.924E-04
 -12.399  0.190E-03  0.114E-04  0.892E-04  0.892E-04
 -12.389  0.181E-03  0.951E-05  0.858E-04  0.858E-04
 -12.379  0.172E-03  0.788E-05  0.822E-04  0.822E-04
 -12.369  0.163E-03  0.654E-05  0.784E-04  0.784E-04
 -12.359  0.154E-03  0.549E-05  0.744E-04  0.744E-04
 -12.349  0.211E-03  0.649E-05  0.102E-03  0.102E-03
 -12.339  0.169E-03  0.431E-05  0.825E-04  0.825E-04
 -12.329  0.129E-03  0.257E-05  0.631E-04  0.631E-04
 -12.319  0.893E-04  0.127E-05  0.440E-04  0.440E-04
 -12.309  0.511E-04  0.431E-06  0.253E-04  0.253E-04
 -12.299  0.140E-04  0.335E-07  0.700E-05  0.700E-05
 -12.289  0.000E+00  0.000E+00  0.000E+00  0.000E+00
 -12.279  0.000E+00  0.000E+00  0.000E+00  0.000E+00
 -12.269  0.000E+00  0.000E+00  0.000E+00  0.000E+00
 -12.259  0.000E+00  0.000E+00  0.000E+00  0.000E+00
 -12.249  0.000E+00  0.000E+00  0.000E+00  0.000E+00
 -12.239  0.000E+00  0.000E+00  0.000E+00  0.000E+00
 -12.229  0.000E+00  0.000E+00  0.000E+00  0.000E+00
 -12.219  0.000E+00  0.000E+00  0.000E+00  0.000E+00
 -12.209  0.000E+00  0.000E+00  0.000E+00  0.000E+00
 -12.199  0.000E+00  0.000E+00  0.000E+00  0.000E+00
 -12.189  0.000E+00  0.000E+00  0.000E+00  0.000E+00
 -12.179  0.000E+00  0.000E+00  0.000E+00  0.000E+00
 -12.169  0.000E+00  0.000E+00  0.000E+00  0.000E+00
 -12.159  0.000E+00  0.000E+00  0.000E+00  0.000E+00
 -12.149  0.000E+00  0.000E+00  0.000E+00  0.000E+00
 -12.139  0.000E+00  0.000E+00  0.000E+00  0.000E+00
 -12.129  0.000E+00  0.000E+00  0.000E+00  0.000E+00
 -12.119  0.000E+00  0.000E+00  0.000E+00  0.000E+00
 -12.109  0.000E+00  0.000E+00  0.000E+00  0.000E+00
 -12.099  0.000E+00  0.000E+00  0.000E+00  0.000E+00
 -12.089  0.000E+00  0.000E+00  0.000E+00  0.000E+00
 -12.079  0.000E+00  0.000E+00  0.000E+00  0.000E+00
 -12.069  0.000E+00  0.000E+00  0.000E+00  0.000E+00
 -12.059  0.000E+00  0.000E+00  0.000E+00  0.000E+00
 -12.049  0.000E+00  0.000E+00  0.000E+00  0.000E+00
 -12.039  0.000E+00  0.000E+00  0.000E+00  0.000E+00
 -12.029  0.000E+00  0.000E+00  0.000E+00  0.000E+00
 -12.019  0.000E+00  0.000E+00  0.000E+00  0.000E+00
 -12.009  0.000E+00  0.000E+00  0.000E+00  0.000E+00
 -11.999  0.391E-02  0.373E-02  0.905E-04  0.905E-04
 -11.989  0.129E-01  0.112E-01  0.830E-03  0.830E-03
 -11.979  0.232E-01  0.186E-01  0.232E-02  0.232E-02
 -11.969  0.162E-01  0.120E-01  0.210E-02  0.210E-02
 -11.959  0.180E-01  0.125E-01  0.277E-02  0.277E-02
 -11.949  0.200E-01  0.130E-01  0.350E-02  0.350E-02
 -11.939  0.220E-01  0.135E-01  0.427E-02  0.427E-02
 -11.929  0.242E-01  0.140E-01  0.510E-02  0.510E-02
 -11.919  0.264E-01  0.145E-01  0.598E-02  0.598E-02
 -11.909  0.288E-01  0.149E-01  0.692E-02  0.692E-02
 -11.899  0.294E-01  0.145E-01  0.745E-02  0.745E-02
 -11.889  0.291E-01  0.137E-01  0.771E-02  0.771E-02
 -11.879  0.287E-01  0.129E-01  0.789E-02  0.789E-02
 -11.869  0.290E-01  0.126E-01  0.825E-02  0.825E-02
 -11.859  0.306E-01  0.127E-01  0.896E-02  0.896E-02
 -11.849  0.323E-01  0.129E-01  0.971E-02  0.971E-02
 -11.839  0.340E-01  0.130E-01  0.105E-01  0.105E-01
 -11.829  0.358E-01  0.131E-01  0.113E-01  0.113E-01
 -11.819  0.376E-01  0.133E-01  0.122E-01  0.122E-01
 -11.809  0.395E-01  0.134E-01  0.131E-01  0.131E-01
 -11.799  0.415E-01  0.135E-01  0.140E-01  0.140E-01
 -11.789  0.435E-01  0.136E-01  0.149E-01  0.149E-01
 -11.779  0.456E-01  0.137E-01  0.159E-01  0.159E-01
 -11.769  0.920E-01  0.264E-01  0.328E-01  0.328E-01
 -11.759  0.804E-01  0.213E-01  0.296E-01  0.296E-01
 -11.749  0.676E-01  0.164E-01  0.256E-01  0.256E-01
 -11.739  0.534E-01  0.117E-01  0.209E-01  0.209E-01
 -11.729  0.380E-01  0.715E-02  0.154E-01  0.154E-01
 -11.719  0.239E-01  0.341E-02  0.102E-01  0.102E-01
 -11.709  0.221E-01  0.268E-02  0.969E-02  0.969E-02
 -11.699  0.204E-01  0.215E-02  0.910E-02  0.910E-02
 -11.689  0.213E-01  0.260E-02  0.937E-02  0.937E-02
 -11.679  0.223E-01  0.310E-02  0.959E-02  0.959E-02
 -11.669  0.232E-01  0.368E-02  0.975E-02  0.975E-02
 -11.659  0.240E-01  0.433E-02  0.986E-02  0.986E-02
 -11.649  0.249E-01  0.504E-02  0.991E-02  0.991E-02
 -11.639  0.256E-01  0.582E-02  0.991E-02  0.991E-02
 -11.629  0.271E-01  0.667E-02  0.102E-01  0.102E-01
 -11.619  0.316E-01  0.752E-02  0.120E-01  0.120E-01
 -11.609  0.535E-01  0.226E-01  0.154E-01  0.154E-01
 -11.599  0.105E+00  0.440E-01  0.305E-01  0.305E-01
 -11.589  0.170E+00  0.513E-01  0.595E-01  0.595E-01
 -11.579  0.400E-01  0.800E-02  0.160E-01  0.160E-01
 -11.569  0.412E-01  0.782E-02  0.167E-01  0.167E-01
 -11.559  0.423E-01  0.766E-02  0.173E-01  0.173E-01
 -11.549  0.435E-01  0.753E-02  0.180E-01  0.180E-01
 -11.539  0.447E-01  0.743E-02  0.186E-01  0.186E-01
 -11.529  0.458E-01  0.736E-02  0.192E-01  0.192E-01
 -11.519  0.470E-01  0.731E-02  0.199E-01  0.199E-01
 -11.509  0.482E-01  0.730E-02  0.205E-01  0.205E-01
 -11.499  0.494E-01  0.731E-02  0.211E-01  0.211E-01
 -11.489  0.506E-01  0.735E-02  0.216E-01  0.216E-01
 -11.479  0.519E-01  0.743E-02  0.222E-01  0.222E-01
 -11.469  0.533E-01  0.754E-02  0.229E-01  0.229E-01
 -11.459  0.546E-01  0.767E-02  0.235E-01  0.235E-01
 -11.449  0.560E-01  0.783E-02  0.241E-01  0.241E-01
 -11.439  0.573E-01  0.802E-02  0.246E-01  0.246E-01
 -11.429  0.586E-01  0.822E-02  0.252E-01  0.252E-01
 -11.419  0.600E-01  0.845E-02  0.257E-01  0.257E-01
 -11.409  0.613E-01  0.871E-02  0.263E-01  0.263E-01
 -11.399  0.626E-01  0.898E-02  0.268E-01  0.268E-01
 -11.389  0.639E-01  0.928E-02  0.273E-01  0.273E-01
 -11.379  0.884E-01  0.127E-01  0.379E-01  0.379E-01
 -11.369  0.853E-01  0.119E-01  0.367E-01  0.367E-01
 -11.359  0.825E-01  0.111E-01  0.357E-01  0.357E-01
 -11.349  0.799E-01  0.104E-01  0.347E-01  0.347E-01
 -11.339  0.775E-01  0.965E-02  0.339E-01  0.339E-01
 -11.329  0.764E-01  0.902E-02  0.337E-01  0.337E-01
 -11.319  0.757E-01  0.842E-02  0.337E-01  0.337E-01
 -11.309  0.778E-01  0.818E-02  0.348E-01  0.348E-01
 -11.299  0.804E-01  0.802E-02  0.362E-01  0.362E-01
 -11.289  0.831E-01  0.785E-02  0.376E-01  0.376E-01
 -11.279  0.858E-01  0.768E-02  0.391E-01  0.391E-01
 -11.269  0.886E-01  0.749E-02  0.405E-01  0.405E-01
 -11.259  0.913E-01  0.730E-02  0.420E-01  0.420E-01
 -11.249  0.941E-01  0.710E-02  0.435E-01  0.435E-01
 -11.239  0.970E-01  0.690E-02  0.450E-01  0.450E-01
 -11.229  0.998E-01  0.668E-02  0.466E-01  0.466E-01
 -11.219  0.103E+00  0.646E-02  0.481E-01  0.481E-01
 -11.209  0.106E+00  0.623E-02  0.497E-01  0.497E-01
 -11.199  0.911E-01  0.410E-02  0.435E-01  0.435E-01
 -11.189  0.934E-01  0.390E-02  0.448E-01  0.448E-01
 -11.179  0.958E-01  0.369E-02  0.460E-01  0.460E-01
 -11.169  0.982E-01  0.347E-02  0.474E-01  0.474E-01
 -11.159  0.101E+00  0.325E-02  0.487E-01  0.487E-01
 -11.149  0.103E+00  0.301E-02  0.501E-01  0.501E-01
 -11.139  0.104E+00  0.276E-02  0.508E-01  0.508E-01
 -11.129  0.915E-01  0.408E-02  0.437E-01  0.437E-01
 -11.119  0.795E-01  0.576E-02  0.368E-01  0.368E-01
 -11.109  0.687E-01  0.743E-02  0.306E-01  0.306E-01
 -11.099  0.668E-01  0.806E-02  0.294E-01  0.294E-01
 -11.089  0.645E-01  0.843E-02  0.281E-01  0.281E-01
 -11.079  0.623E-01  0.879E-02  0.268E-01  0.268E-01
 -11.069  0.601E-01  0.915E-02  0.255E-01  0.255E-01
 -11.059  0.578E-01  0.949E-02  0.242E-01  0.242E-01
 -11.049  0.556E-01  0.983E-02  0.229E-01  0.229E-01
 -11.039  0.534E-01  0.102E-01  0.216E-01  0.216E-01
 -11.029  0.512E-01  0.105E-01  0.204E-01  0.204E-01
 -11.019  0.743E-01  0.108E-01  0.318E-01  0.318E-01
 -11.009  0.930E-01  0.186E-01  0.372E-01  0.372E-01
 -10.999  0.924E-01  0.173E-01  0.375E-01  0.375E-01
 -10.989  0.910E-01  0.160E-01  0.375E-01  0.375E-01
 -10.979  0.890E-01  0.148E-01  0.371E-01  0.371E-01
 -10.969  0.863E-01  0.137E-01  0.363E-01  0.363E-01
 -10.959  0.828E-01  0.126E-01  0.351E-01  0.351E-01
 -10.949  0.787E-01  0.117E-01  0.335E-01  0.335E-01
 -10.939  0.739E-01  0.107E-01  0.316E-01  0.316E-01
 -10.929  0.683E-01  0.987E-02  0.292E-01  0.292E-01
 -10.919  0.621E-01  0.909E-02  0.265E-01  0.265E-01
 -10.909  0.551E-01  0.836E-02  0.234E-01  0.234E-01
 -10.899  0.475E-01  0.771E-02  0.199E-01  0.199E-01
 -10.889  0.391E-01  0.717E-02  0.160E-01  0.160E-01
 -10.879  0.338E-01  0.676E-02  0.135E-01  0.135E-01
 -10.869  0.339E-01  0.638E-02  0.138E-01  0.138E-01
 -10.859  0.353E-01  0.600E-02  0.146E-01  0.146E-01
 -10.849  0.372E-01  0.565E-02  0.158E-01  0.158E-01
 -10.839  0.394E-01  0.540E-02  0.170E-01  0.170E-01
 -10.829  0.124E+00  0.121E-01  0.558E-01  0.558E-01
 -10.819  0.962E-01  0.105E-01  0.428E-01  0.428E-01
 -10.809  0.740E-01  0.868E-02  0.326E-01  0.326E-01
 -10.799  0.570E-01  0.666E-02  0.252E-01  0.252E-01
 -10.789  0.454E-01  0.444E-02  0.205E-01  0.205E-01
 -10.779  0.402E-01  0.259E-02  0.188E-01  0.188E-01
 -10.769  0.522E-01  0.290E-02  0.247E-01  0.247E-01
 -10.759  0.669E-01  0.325E-02  0.318E-01  0.318E-01
 -10.749  0.810E-01  0.358E-02  0.387E-01  0.387E-01
 -10.739  0.945E-01  0.389E-02  0.453E-01  0.453E-01
 -10.729  0.108E+00  0.417E-02  0.517E-01  0.517E-01
 -10.719  0.120E+00  0.443E-02  0.578E-01  0.578E-01
 -10.709  0.132E+00  0.467E-02  0.636E-01  0.636E-01
 -10.699  0.143E+00  0.489E-02  0.692E-01  0.692E-01
 -10.689  0.154E+00  0.508E-02  0.745E-01  0.745E-01
 -10.679  0.164E+00  0.525E-02  0.795E-01  0.795E-01
 -10.669  0.836E-01  0.408E-02  0.397E-01  0.397E-01
 -10.659  0.841E-01  0.412E-02  0.400E-01  0.400E-01
 -10.649  0.847E-01  0.415E-02  0.403E-01  0.403E-01
 -10.639  0.853E-01  0.418E-02  0.405E-01  0.405E-01
 -10.629  0.859E-01  0.422E-02  0.408E-01  0.408E-01
 -10.619  0.864E-01  0.425E-02  0.411E-01  0.411E-01
 -10.609  0.870E-01  0.429E-02  0.414E-01  0.414E-01
 -10.599  0.877E-01  0.432E-02  0.417E-01  0.417E-01
 -10.589  0.883E-01  0.436E-02  0.420E-01  0.420E-01
 -10.579  0.889E-01  0.439E-02  0.423E-01  0.423E-01
 -10.569  0.895E-01  0.442E-02  0.426E-01  0.426E-01
 -10.559  0.902E-01  0.446E-02  0.429E-01  0.429E-01
 -10.549  0.908E-01  0.449E-02  0.432E-01  0.432E-01
 -10.539  0.915E-01  0.452E-02  0.435E-01  0.435E-01
 -10.529  0.922E-01  0.455E-02  0.438E-01  0.438E-01
 -10.519  0.928E-01  0.459E-02  0.441E-01  0.441E-01
 -10.509  0.101E+00  0.585E-02  0.478E-01  0.478E-01
 -10.499  0.195E+00  0.253E-01  0.849E-01  0.849E-01
 -10.489  0.413E+00  0.289E-01  0.192E+00  0.192E+00
 -10.479  0.103E+00  0.522E-02  0.488E-01  0.488E-01
 -10.469  0.104E+00  0.520E-02  0.494E-01  0.494E-01
 -10.459  0.105E+00  0.518E-02  0.501E-01  0.501E-01
 -10.449  0.107E+00  0.516E-02  0.509E-01  0.509E-01
 -10.439  0.109E+00  0.515E-02  0.518E-01  0.518E-01
 -10.429  0.111E+00  0.513E-02  0.528E-01  0.528E-01
 -10.419  0.113E+00  0.512E-02  0.539E-01  0.539E-01
 -10.409  0.116E+00  0.519E-02  0.555E-01  0.555E-01
 -10.399  0.119E+00  0.524E-02  0.570E-01  0.570E-01
 -10.389  0.122E+00  0.529E-02  0.585E-01  0.585E-01
 -10.379  0.125E+00  0.532E-02  0.600E-01  0.600E-01
 -10.369  0.128E+00  0.534E-02  0.615E-01  0.615E-01
 -10.359  0.131E+00  0.535E-02  0.629E-01  0.629E-01
 -10.349  0.134E+00  0.535E-02  0.644E-01  0.644E-01
 -10.339  0.137E+00  0.533E-02  0.658E-01  0.658E-01
 -10.329  0.140E+00  0.531E-02  0.672E-01  0.672E-01
 -10.319  0.141E+00  0.525E-02  0.680E-01  0.680E-01
 -10.309  0.143E+00  0.518E-02  0.687E-01  0.687E-01
 -10.299  0.145E+00  0.521E-02  0.698E-01  0.698E-01
 -10.289  0.147E+00  0.525E-02  0.710E-01  0.710E-01
 -10.279  0.150E+00  0.528E-02  0.721E-01  0.721E-01
 -10.269  0.152E+00  0.531E-02  0.733E-01  0.733E-01
 -10.259  0.154E+00  0.532E-02  0.745E-01  0.745E-01
 -10.249  0.157E+00  0.533E-02  0.758E-01  0.758E-01
 -10.239  0.159E+00  0.533E-02  0.770E-01  0.770E-01
 -10.229  0.162E+00  0.533E-02  0.783E-01  0.783E-01
 -10.219  0.165E+00  0.532E-02  0.796E-01  0.796E-01
 -10.209  0.167E+00  0.530E-02  0.810E-01  0.810E-01
 -10.199  0.170E+00  0.527E-02  0.823E-01  0.823E-01
 -10.189  0.173E+00  0.526E-02  0.838E-01  0.838E-01
 -10.179  0.182E+00  0.552E-02  0.883E-01  0.883E-01
 -10.169  0.190E+00  0.571E-02  0.921E-01  0.921E-01
 -10.159  0.196E+00  0.580E-02  0.952E-01  0.952E-01
 -10.149  0.201E+00  0.580E-02  0.976E-01  0.976E-01
 -10.139  0.299E+00  0.539E-02  0.147E+00  0.147E+00
 -10.129  0.823E-01  0.340E-02  0.395E-01  0.395E-01
 -10.119  0.840E-01  0.323E-02  0.404E-01  0.404E-01
 -10.109  0.981E-01  0.444E-02  0.468E-01  0.468E-01
 -10.099  0.132E+00  0.723E-02  0.626E-01  0.626E-01
 -10.089  0.184E+00  0.105E-01  0.866E-01  0.866E-01
 -10.079  0.932E-01  0.713E-02  0.430E-01  0.430E-01
 -10.069  0.104E+00  0.742E-02  0.485E-01  0.485E-01
 -10.059  0.116E+00  0.738E-02  0.543E-01  0.543E-01
 -10.049  0.143E+00  0.825E-02  0.672E-01  0.672E-01
 -10.039  0.135E+00  0.727E-02  0.639E-01  0.639E-01
 -10.029  0.128E+00  0.648E-02  0.609E-01  0.609E-01
 -10.019  0.121E+00  0.581E-02  0.578E-01  0.578E-01
 -10.009  0.114E+00  0.521E-02  0.544E-01  0.544E-01
  -9.999  0.106E+00  0.468E-02  0.509E-01  0.509E-01
  -9.989  0.983E-01  0.422E-02  0.470E-01  0.470E-01
  -9.979  0.897E-01  0.383E-02  0.429E-01  0.429E-01
  -9.969  0.807E-01  0.352E-02  0.386E-01  0.386E-01
  -9.959  0.713E-01  0.328E-02  0.340E-01  0.340E-01
  -9.949  0.619E-01  0.313E-02  0.294E-01  0.294E-01
  -9.939  0.553E-01  0.316E-02  0.261E-01  0.261E-01
  -9.929  0.554E-01  0.331E-02  0.261E-01  0.261E-01
  -9.919  0.586E-01  0.399E-02  0.273E-01  0.273E-01
  -9.909  0.662E-01  0.569E-02  0.303E-01  0.303E-01
  -9.899  0.770E-01  0.721E-02  0.349E-01  0.349E-01
  -9.889  0.993E-01  0.850E-02  0.454E-01  0.454E-01
  -9.879  0.117E+00  0.911E-02  0.541E-01  0.541E-01
  -9.869  0.149E+00  0.949E-02  0.699E-01  0.699E-01
  -9.859  0.183E+00  0.967E-02  0.865E-01  0.865E-01
  -9.849  0.217E+00  0.966E-02  0.104E+00  0.104E+00
  -9.839  0.188E+00  0.728E-02  0.901E-01  0.901E-01
  -9.829  0.205E+00  0.789E-02  0.986E-01  0.986E-01
  -9.819  0.221E+00  0.867E-02  0.106E+00  0.106E+00
  -9.809  0.237E+00  0.965E-02  0.114E+00  0.114E+00
  -9.799  0.251E+00  0.108E-01  0.120E+00  0.120E+00
  -9.789  0.217E+00  0.911E-02  0.104E+00  0.104E+00
  -9.779  0.210E-01  0.884E-03  0.101E-01  0.101E-01
  -9.769  0.328E-02  0.408E-03  0.143E-02  0.143E-02
  -9.759  0.537E-02  0.485E-03  0.244E-02  0.244E-02
  -9.749  0.770E-02  0.554E-03  0.357E-02  0.357E-02
  -9.739  0.169E-01  0.242E-02  0.724E-02  0.724E-02
  -9.729  0.232E-01  0.258E-02  0.103E-01  0.103E-01
  -9.719  0.308E-01  0.259E-02  0.141E-01  0.141E-01
  -9.709  0.391E-01  0.247E-02  0.183E-01  0.183E-01
  -9.699  0.455E-01  0.231E-02  0.216E-01  0.216E-01
  -9.689  0.498E-01  0.203E-02  0.239E-01  0.239E-01
  -9.679  0.525E-01  0.211E-02  0.252E-01  0.252E-01
  -9.669  0.531E-01  0.213E-02  0.255E-01  0.255E-01
  -9.659  0.517E-01  0.209E-02  0.248E-01  0.248E-01
  -9.649  0.482E-01  0.200E-02  0.231E-01  0.231E-01
  -9.639  0.426E-01  0.186E-02  0.204E-01  0.204E-01
  -9.629  0.349E-01  0.167E-02  0.166E-01  0.166E-01
  -9.619  0.251E-01  0.142E-02  0.118E-01  0.118E-01
  -9.609  0.132E-01  0.113E-02  0.603E-02  0.603E-02
  -9.599  0.956E-02  0.106E-02  0.425E-02  0.425E-02
  -9.589  0.109E-01  0.112E-02  0.490E-02  0.490E-02
  -9.579  0.123E-01  0.118E-02  0.558E-02  0.558E-02
  -9.569  0.139E-01  0.123E-02  0.632E-02  0.632E-02
  -9.559  0.165E-01  0.157E-02  0.747E-02  0.747E-02
  -9.549  0.199E-01  0.197E-02  0.899E-02  0.899E-02
  -9.539  0.241E-01  0.240E-02  0.108E-01  0.108E-01
  -9.529  0.290E-01  0.287E-02  0.131E-01  0.131E-01
  -9.519  0.316E-01  0.247E-02  0.146E-01  0.146E-01
  -9.509  0.373E-01  0.266E-02  0.173E-01  0.173E-01
  -9.499  0.437E-01  0.274E-02  0.205E-01  0.205E-01
  -9.489  0.502E-01  0.267E-02  0.238E-01  0.238E-01
  -9.479  0.578E-01  0.262E-02  0.276E-01  0.276E-01
  -9.469  0.661E-01  0.249E-02  0.318E-01  0.318E-01
  -9.459  0.752E-01  0.229E-02  0.365E-01  0.365E-01
  -9.449  0.854E-01  0.231E-02  0.416E-01  0.416E-01
  -9.439  0.766E-01  0.257E-02  0.370E-01  0.370E-01
  -9.429  0.501E-01  0.174E-02  0.242E-01  0.242E-01
  -9.419  0.442E-01  0.157E-02  0.213E-01  0.213E-01
  -9.409  0.391E-01  0.141E-02  0.188E-01  0.188E-01
  -9.399  0.344E-01  0.126E-02  0.166E-01  0.166E-01
  -9.389  0.302E-01  0.111E-02  0.146E-01  0.146E-01
  -9.379  0.267E-01  0.983E-03  0.129E-01  0.129E-01
  -9.369  0.238E-01  0.868E-03  0.115E-01  0.115E-01
  -9.359  0.214E-01  0.769E-03  0.103E-01  0.103E-01
  -9.349  0.195E-01  0.685E-03  0.939E-02  0.939E-02
  -9.339  0.181E-01  0.640E-03  0.874E-02  0.874E-02
  -9.329  0.172E-01  0.713E-03  0.826E-02  0.826E-02
  -9.319  0.164E-01  0.800E-03  0.779E-02  0.779E-02
  -9.309  0.156E-01  0.899E-03  0.734E-02  0.734E-02
  -9.299  0.148E-01  0.101E-02  0.689E-02  0.689E-02
  -9.289  0.271E-01  0.454E-02  0.113E-01  0.113E-01
  -9.279  0.241E-01  0.331E-02  0.104E-01  0.104E-01
  -9.269  0.200E-01  0.218E-02  0.891E-02  0.891E-02
  -9.259  0.165E-01  0.132E-02  0.758E-02  0.758E-02
  -9.249  0.127E-01  0.855E-03  0.592E-02  0.592E-02
  -9.239  0.936E-02  0.615E-03  0.437E-02  0.437E-02
  -9.229  0.767E-02  0.580E-03  0.354E-02  0.354E-02
  -9.219  0.722E-02  0.576E-03  0.332E-02  0.332E-02
  -9.209  0.684E-02  0.573E-03  0.313E-02  0.313E-02
  -9.199  0.650E-02  0.570E-03  0.297E-02  0.297E-02
  -9.189  0.642E-02  0.578E-03  0.292E-02  0.292E-02
  -9.179  0.671E-02  0.617E-03  0.305E-02  0.305E-02
  -9.169  0.709E-02  0.680E-03  0.321E-02  0.321E-02
  -9.159  0.756E-02  0.767E-03  0.340E-02  0.340E-02
  -9.149  0.811E-02  0.878E-03  0.362E-02  0.362E-02
  -9.139  0.875E-02  0.101E-02  0.387E-02  0.387E-02
  -9.129  0.947E-02  0.117E-02  0.415E-02  0.415E-02
  -9.119  0.970E-02  0.115E-02  0.428E-02  0.428E-02
  -9.109  0.986E-02  0.111E-02  0.438E-02  0.438E-02
  -9.099  0.100E-01  0.106E-02  0.448E-02  0.448E-02
  -9.089  0.102E-01  0.102E-02  0.457E-02  0.457E-02
  -9.079  0.103E-01  0.979E-03  0.466E-02  0.466E-02
  -9.069  0.104E-01  0.936E-03  0.475E-02  0.475E-02
  -9.059  0.106E-01  0.893E-03  0.484E-02  0.484E-02
  -9.049  0.439E-01  0.851E-03  0.215E-01  0.215E-01
  -9.039  0.355E+00  0.889E-03  0.177E+00  0.177E+00
  -9.029  0.587E-02  0.543E-03  0.266E-02  0.266E-02
  -9.019  0.617E-02  0.534E-03  0.282E-02  0.282E-02
  -9.009  0.647E-02  0.528E-03  0.297E-02  0.297E-02
  -8.999  0.679E-02  0.523E-03  0.314E-02  0.314E-02
  -8.989  0.713E-02  0.520E-03  0.330E-02  0.330E-02
  -8.979  0.747E-02  0.519E-03  0.348E-02  0.348E-02
  -8.969  0.783E-02  0.519E-03  0.365E-02  0.365E-02
  -8.959  0.819E-02  0.522E-03  0.384E-02  0.384E-02
  -8.949  0.857E-02  0.527E-03  0.402E-02  0.402E-02
  -8.939  0.897E-02  0.533E-03  0.422E-02  0.422E-02
  -8.929  0.129E-01  0.102E-02  0.596E-02  0.596E-02
  -8.919  0.134E-01  0.971E-03  0.622E-02  0.622E-02
  -8.909  0.139E-01  0.924E-03  0.646E-02  0.646E-02
  -8.899  0.142E-01  0.878E-03  0.668E-02  0.668E-02
  -8.889  0.146E-01  0.833E-03  0.688E-02  0.688E-02
  -8.879  0.149E-01  0.788E-03  0.705E-02  0.705E-02
  -8.869  0.151E-01  0.744E-03  0.719E-02  0.719E-02
  -8.859  0.153E-01  0.700E-03  0.731E-02  0.731E-02
  -8.849  0.267E-01  0.859E-03  0.129E-01  0.129E-01
  -8.839  0.257E-01  0.790E-03  0.124E-01  0.124E-01
  -8.829  0.246E-01  0.722E-03  0.119E-01  0.119E-01
  -8.819  0.235E-01  0.655E-03  0.114E-01  0.114E-01
  -8.809  0.224E-01  0.590E-03  0.109E-01  0.109E-01
  -8.799  0.212E-01  0.526E-03  0.103E-01  0.103E-01
  -8.789  0.199E-01  0.463E-03  0.972E-02  0.972E-02
  -8.779  0.186E-01  0.401E-03  0.910E-02  0.910E-02
  -8.769  0.173E-01  0.341E-03  0.846E-02  0.846E-02
  -8.759  0.158E-01  0.281E-03  0.778E-02  0.778E-02
  -8.749  0.144E-01  0.224E-03  0.708E-02  0.708E-02
  -8.739  0.129E-01  0.167E-03  0.636E-02  0.636E-02
  -8.729  0.114E-01  0.133E-03  0.565E-02  0.565E-02
  -8.719  0.996E-02  0.107E-03  0.493E-02  0.493E-02
  -8.709  0.849E-02  0.897E-04  0.420E-02  0.420E-02
  -8.699  0.109E-01  0.102E-03  0.539E-02  0.539E-02
  -8.689  0.259E-01  0.178E-03  0.129E-01  0.129E-01
  -8.679  0.540E-01  0.318E-03  0.268E-01  0.268E-01
  -8.669  0.949E-01  0.524E-03  0.472E-01  0.472E-01
  -8.659  0.149E+00  0.811E-03  0.740E-01  0.740E-01
  -8.649  0.212E+00  0.118E-02  0.106E+00  0.106E+00
  -8.639  0.119E+00  0.557E-03  0.591E-01  0.591E-01
  -8.629  0.934E-01  0.603E-03  0.464E-01  0.464E-01
  -8.619  0.751E-01  0.642E-03  0.372E-01  0.372E-01
  -8.609  0.634E-01  0.669E-03  0.314E-01  0.314E-01
  -8.599  0.583E-01  0.684E-03  0.288E-01  0.288E-01
  -8.589  0.590E-01  0.709E-03  0.291E-01  0.291E-01
  -8.579  0.605E-01  0.744E-03  0.299E-01  0.299E-01
  -8.569  0.621E-01  0.779E-03  0.307E-01  0.307E-01
  -8.559  0.639E-01  0.816E-03  0.316E-01  0.316E-01
  -8.549  0.659E-01  0.853E-03  0.325E-01  0.325E-01
  -8.539  0.680E-01  0.891E-03  0.336E-01  0.336E-01
  -8.529  0.703E-01  0.930E-03  0.347E-01  0.347E-01
  -8.519  0.727E-01  0.969E-03  0.359E-01  0.359E-01
  -8.509  0.753E-01  0.101E-02  0.371E-01  0.371E-01
  -8.499  0.780E-01  0.105E-02  0.385E-01  0.385E-01
  -8.489  0.809E-01  0.109E-02  0.399E-01  0.399E-01
  -8.479  0.870E-01  0.116E-02  0.429E-01  0.429E-01
  -8.469  0.955E-01  0.125E-02  0.471E-01  0.471E-01
  -8.459  0.104E+00  0.133E-02  0.514E-01  0.514E-01
  -8.449  0.113E+00  0.141E-02  0.556E-01  0.556E-01
  -8.439  0.121E+00  0.149E-02  0.598E-01  0.598E-01
  -8.429  0.129E+00  0.155E-02  0.640E-01  0.640E-01
  -8.419  0.138E+00  0.162E-02  0.681E-01  0.681E-01
  -8.409  0.146E+00  0.168E-02  0.723E-01  0.723E-01
  -8.399  0.155E+00  0.174E-02  0.765E-01  0.765E-01
  -8.389  0.163E+00  0.179E-02  0.806E-01  0.806E-01
  -8.379  0.163E+00  0.111E-02  0.809E-01  0.809E-01
  -8.369  0.168E+00  0.102E-02  0.836E-01  0.836E-01
  -8.359  0.173E+00  0.168E-02  0.857E-01  0.857E-01
  -8.349  0.161E+00  0.132E-02  0.800E-01  0.800E-01
  -8.339  0.169E+00  0.107E-02  0.837E-01  0.837E-01
  -8.329  0.171E+00  0.875E-03  0.852E-01  0.852E-01
  -8.319  0.170E+00  0.721E-03  0.844E-01  0.844E-01
  -8.309  0.163E+00  0.611E-03  0.814E-01  0.814E-01
  -8.299  0.156E+00  0.538E-03  0.778E-01  0.778E-01
  -8.289  0.240E+00  0.630E-03  0.120E+00  0.120E+00
  -8.279  0.416E+00  0.207E-02  0.207E+00  0.207E+00
  -8.269  0.168E+00  0.548E-03  0.839E-01  0.839E-01
  -8.259  0.167E+00  0.545E-03  0.834E-01  0.834E-01
  -8.249  0.168E+00  0.544E-03  0.837E-01  0.837E-01
  -8.239  0.169E+00  0.545E-03  0.840E-01  0.840E-01
  -8.229  0.170E+00  0.546E-03  0.846E-01  0.846E-01
  -8.219  0.171E+00  0.549E-03  0.854E-01  0.854E-01
  -8.209  0.194E+00  0.555E-03  0.968E-01  0.968E-01
  -8.199  0.219E+00  0.558E-03  0.109E+00  0.109E+00
  -8.189  0.247E+00  0.559E-03  0.123E+00  0.123E+00
  -8.179  0.276E+00  0.558E-03  0.138E+00  0.138E+00
  -8.169  0.205E+00  0.548E-03  0.102E+00  0.102E+00
  -8.159  0.210E+00  0.568E-03  0.105E+00  0.105E+00
  -8.149  0.214E+00  0.594E-03  0.107E+00  0.107E+00
  -8.139  0.216E+00  0.625E-03  0.108E+00  0.108E+00
  -8.129  0.218E+00  0.662E-03  0.109E+00  0.109E+00
  -8.119  0.218E+00  0.705E-03  0.109E+00  0.109E+00
  -8.109  0.217E+00  0.754E-03  0.108E+00  0.108E+00
  -8.099  0.215E+00  0.808E-03  0.107E+00  0.107E+00
  -8.089  0.212E+00  0.868E-03  0.106E+00  0.106E+00
  -8.079  0.225E+00  0.939E-03  0.112E+00  0.112E+00
  -8.069  0.238E+00  0.101E-02  0.118E+00  0.118E+00
  -8.059  0.248E+00  0.109E-02  0.124E+00  0.124E+00
  -8.049  0.255E+00  0.115E-02  0.127E+00  0.127E+00
  -8.039  0.259E+00  0.122E-02  0.129E+00  0.129E+00
  -8.029  0.259E+00  0.130E-02  0.129E+00  0.129E+00
  -8.019  0.257E+00  0.137E-02  0.128E+00  0.128E+00
  -8.009  0.251E+00  0.138E-02  0.125E+00  0.125E+00
  -7.999  0.240E+00  0.121E-02  0.120E+00  0.120E+00
  -7.989  0.222E+00  0.106E-02  0.110E+00  0.110E+00
  -7.979  0.344E+00  0.237E-02  0.171E+00  0.171E+00
  -7.969  0.290E+00  0.169E-02  0.144E+00  0.144E+00
  -7.959  0.224E+00  0.119E-02  0.111E+00  0.111E+00
  -7.949  0.154E+00  0.857E-03  0.765E-01  0.765E-01
  -7.939  0.953E-01  0.681E-03  0.473E-01  0.473E-01
  -7.929  0.914E-01  0.606E-03  0.454E-01  0.454E-01
  -7.919  0.886E-01  0.534E-03  0.440E-01  0.440E-01
  -7.909  0.856E-01  0.466E-03  0.426E-01  0.426E-01
  -7.899  0.824E-01  0.400E-03  0.410E-01  0.410E-01
  -7.889  0.789E-01  0.338E-03  0.393E-01  0.393E-01
  -7.879  0.752E-01  0.284E-03  0.375E-01  0.375E-01
  -7.869  0.711E-01  0.260E-03  0.354E-01  0.354E-01
  -7.859  0.244E+00  0.323E-03  0.122E+00  0.122E+00
  -7.849  0.219E+00  0.364E-03  0.109E+00  0.109E+00
  -7.839  0.196E+00  0.398E-03  0.977E-01  0.977E-01
  -7.829  0.174E+00  0.424E-03  0.867E-01  0.867E-01
  -7.819  0.153E+00  0.441E-03  0.764E-01  0.764E-01
  -7.809  0.138E+00  0.462E-03  0.690E-01  0.690E-01
  -7.799  0.128E+00  0.483E-03  0.638E-01  0.638E-01
  -7.789  0.119E+00  0.494E-03  0.595E-01  0.595E-01
  -7.779  0.113E+00  0.496E-03  0.561E-01  0.561E-01
  -7.769  0.108E+00  0.489E-03  0.537E-01  0.537E-01
  -7.759  0.105E+00  0.472E-03  0.521E-01  0.521E-01
  -7.749  0.103E+00  0.446E-03  0.515E-01  0.515E-01
  -7.739  0.104E+00  0.432E-03  0.517E-01  0.517E-01
  -7.729  0.105E+00  0.451E-03  0.521E-01  0.521E-01
  -7.719  0.106E+00  0.468E-03  0.526E-01  0.526E-01
  -7.709  0.107E+00  0.485E-03  0.532E-01  0.532E-01
  -7.699  0.108E+00  0.501E-03  0.539E-01  0.539E-01
  -7.689  0.110E+00  0.516E-03  0.546E-01  0.546E-01
  -7.679  0.111E+00  0.531E-03  0.555E-01  0.555E-01
  -7.669  0.113E+00  0.545E-03  0.564E-01  0.564E-01
  -7.659  0.115E+00  0.559E-03  0.573E-01  0.573E-01
  -7.649  0.117E+00  0.995E-03  0.580E-01  0.580E-01
  -7.639  0.121E+00  0.214E-02  0.593E-01  0.593E-01
  -7.629  0.128E+00  0.311E-02  0.623E-01  0.623E-01
  -7.619  0.155E+00  0.448E-02  0.751E-01  0.751E-01
  -7.609  0.205E+00  0.553E-02  0.995E-01  0.995E-01
  -7.599  0.272E+00  0.459E-02  0.134E+00  0.134E+00
  -7.589  0.868E-01  0.101E-02  0.429E-01  0.429E-01
  -7.579  0.874E-01  0.106E-02  0.432E-01  0.432E-01
  -7.569  0.882E-01  0.111E-02  0.436E-01  0.436E-01
  -7.559  0.892E-01  0.116E-02  0.440E-01  0.440E-01
  -7.549  0.903E-01  0.121E-02  0.446E-01  0.446E-01
  -7.539  0.916E-01  0.126E-02  0.452E-01  0.452E-01
  -7.529  0.782E-01  0.122E-02  0.385E-01  0.385E-01
  -7.519  0.800E-01  0.129E-02  0.393E-01  0.393E-01
  -7.509  0.819E-01  0.136E-02  0.403E-01  0.403E-01
  -7.499  0.841E-01  0.143E-02  0.413E-01  0.413E-01
  -7.489  0.864E-01  0.150E-02  0.425E-01  0.425E-01
  -7.479  0.890E-01  0.157E-02  0.437E-01  0.437E-01
  -7.469  0.918E-01  0.163E-02  0.451E-01  0.451E-01
  -7.459  0.947E-01  0.170E-02  0.465E-01  0.465E-01
  -7.449  0.978E-01  0.176E-02  0.480E-01  0.480E-01
  -7.439  0.101E+00  0.182E-02  0.497E-01  0.497E-01
  -7.429  0.105E+00  0.188E-02  0.514E-01  0.514E-01
  -7.419  0.511E+00  0.513E-02  0.253E+00  0.253E+00
  -7.409  0.398E+00  0.410E-02  0.197E+00  0.197E+00
  -7.399  0.333E+00  0.332E-02  0.165E+00  0.165E+00
  -7.389  0.303E+00  0.287E-02  0.150E+00  0.150E+00
  -7.379  0.263E+00  0.258E-02  0.130E+00  0.130E+00
  -7.369  0.212E+00  0.236E-02  0.105E+00  0.105E+00
  -7.359  0.149E+00  0.224E-02  0.734E-01  0.734E-01
  -7.349  0.772E-01  0.222E-02  0.375E-01  0.375E-01
  -7.339  0.657E-01  0.221E-02  0.318E-01  0.318E-01
  -7.329  0.608E-01  0.219E-02  0.293E-01  0.293E-01
  -7.319  0.567E-01  0.215E-02  0.273E-01  0.273E-01
  -7.309  0.535E-01  0.209E-02  0.257E-01  0.257E-01
  -7.299  0.511E-01  0.202E-02  0.245E-01  0.245E-01
  -7.289  0.496E-01  0.195E-02  0.238E-01  0.238E-01
  -7.279  0.491E-01  0.192E-02  0.236E-01  0.236E-01
  -7.269  0.498E-01  0.199E-02  0.239E-01  0.239E-01
  -7.259  0.506E-01  0.202E-02  0.243E-01  0.243E-01
  -7.249  0.515E-01  0.205E-02  0.247E-01  0.247E-01
  -7.239  0.598E-01  0.215E-02  0.288E-01  0.288E-01
  -7.229  0.604E-01  0.216E-02  0.291E-01  0.291E-01
  -7.219  0.611E-01  0.217E-02  0.295E-01  0.295E-01
  -7.209  0.620E-01  0.217E-02  0.299E-01  0.299E-01
  -7.199  0.632E-01  0.217E-02  0.305E-01  0.305E-01
  -7.189  0.647E-01  0.218E-02  0.312E-01  0.312E-01
  -7.179  0.663E-01  0.218E-02  0.321E-01  0.321E-01
  -7.169  0.683E-01  0.219E-02  0.330E-01  0.330E-01
  -7.159  0.704E-01  0.220E-02  0.341E-01  0.341E-01
  -7.149  0.729E-01  0.222E-02  0.353E-01  0.353E-01
  -7.139  0.756E-01  0.223E-02  0.367E-01  0.367E-01
  -7.129  0.785E-01  0.225E-02  0.381E-01  0.381E-01
  -7.119  0.817E-01  0.227E-02  0.397E-01  0.397E-01
  -7.109  0.851E-01  0.229E-02  0.414E-01  0.414E-01
  -7.099  0.888E-01  0.231E-02  0.432E-01  0.432E-01
  -7.089  0.927E-01  0.234E-02  0.452E-01  0.452E-01
  -7.079  0.969E-01  0.237E-02  0.473E-01  0.473E-01
  -7.069  0.101E+00  0.240E-02  0.495E-01  0.495E-01
  -7.059  0.106E+00  0.243E-02  0.518E-01  0.518E-01
  -7.049  0.111E+00  0.246E-02  0.543E-01  0.543E-01
  -7.039  0.116E+00  0.250E-02  0.568E-01  0.568E-01
  -7.029  0.122E+00  0.254E-02  0.595E-01  0.595E-01
  -7.019  0.135E+00  0.258E-02  0.660E-01  0.660E-01
  -7.009  0.181E+00  0.618E-02  0.874E-01  0.874E-01
  -6.999  0.152E+00  0.175E-02  0.751E-01  0.751E-01
  -6.989  0.270E+00  0.233E-02  0.134E+00  0.134E+00
  -6.979  0.174E+00  0.365E-02  0.854E-01  0.854E-01
  -6.969  0.113E+00  0.209E-02  0.553E-01  0.553E-01
  -6.959  0.109E+00  0.200E-02  0.535E-01  0.535E-01
  -6.949  0.102E+00  0.193E-02  0.500E-01  0.500E-01
  -6.939  0.916E-01  0.189E-02  0.448E-01  0.448E-01
  -6.929  0.778E-01  0.187E-02  0.380E-01  0.380E-01
  -6.919  0.607E-01  0.188E-02  0.294E-01  0.294E-01
  -6.909  0.446E-01  0.194E-02  0.213E-01  0.213E-01
  -6.899  0.353E-01  0.202E-02  0.166E-01  0.166E-01
  -6.889  0.307E-01  0.144E-02  0.146E-01  0.146E-01
  -6.879  0.312E-01  0.135E-02  0.149E-01  0.149E-01
  -6.869  0.316E-01  0.127E-02  0.152E-01  0.152E-01
  -6.859  0.321E-01  0.121E-02  0.154E-01  0.154E-01
  -6.849  0.207E+01  0.475E-01  0.101E+01  0.101E+01
  -6.839  0.626E-01  0.331E-02  0.297E-01  0.297E-01
  -6.829  0.538E-01  0.393E-02  0.249E-01  0.249E-01
  -6.819  0.448E-01  0.348E-02  0.207E-01  0.207E-01
  -6.809  0.346E-01  0.126E-02  0.167E-01  0.167E-01
  -6.799  0.280E-01  0.105E-02  0.135E-01  0.135E-01
  -6.789  0.223E-01  0.853E-03  0.107E-01  0.107E-01
  -6.779  0.177E-01  0.683E-03  0.850E-02  0.850E-02
  -6.769  0.140E-01  0.536E-03  0.674E-02  0.674E-02
  -6.759  0.113E-01  0.412E-03  0.547E-02  0.547E-02
  -6.749  0.965E-02  0.310E-03  0.467E-02  0.467E-02
  -6.739  0.894E-02  0.231E-03  0.436E-02  0.436E-02
  -6.729  0.922E-02  0.174E-03  0.452E-02  0.452E-02
  -6.719  0.105E-01  0.142E-03  0.517E-02  0.517E-02
  -6.709  0.122E-01  0.129E-03  0.602E-02  0.602E-02
  -6.699  0.162E-01  0.154E-03  0.801E-02  0.801E-02
  -6.689  0.234E-01  0.173E-03  0.116E-01  0.116E-01
  -6.679  0.351E-01  0.186E-03  0.174E-01  0.174E-01
  -6.669  0.567E-01  0.222E-03  0.282E-01  0.282E-01
  -6.659  0.916E-01  0.739E-03  0.454E-01  0.454E-01
  -6.649  0.138E+00  0.189E-02  0.682E-01  0.682E-01
  -6.639  0.197E+00  0.369E-02  0.965E-01  0.965E-01
  -6.629  0.267E+00  0.612E-02  0.130E+00  0.130E+00
  -6.619  0.349E+00  0.918E-02  0.170E+00  0.170E+00
  -6.609  0.114E+00  0.916E-02  0.525E-01  0.525E-01
  -6.599  0.107E+00  0.750E-02  0.497E-01  0.497E-01
  -6.589  0.101E+00  0.616E-02  0.474E-01  0.474E-01
  -6.579  0.965E-01  0.512E-02  0.457E-01  0.457E-01
  -6.569  0.935E-01  0.439E-02  0.446E-01  0.446E-01
  -6.559  0.921E-01  0.397E-02  0.441E-01  0.441E-01
  -6.549  0.921E-01  0.386E-02  0.441E-01  0.441E-01
  -6.539  0.953E-01  0.466E-02  0.453E-01  0.453E-01
  -6.529  0.106E+00  0.586E-02  0.501E-01  0.501E-01
  -6.519  0.124E+00  0.672E-02  0.585E-01  0.585E-01
  -6.509  0.860E-01  0.481E-02  0.406E-01  0.406E-01
  -6.499  0.855E-01  0.514E-02  0.402E-01  0.402E-01
  -6.489  0.849E-01  0.546E-02  0.397E-01  0.397E-01
  -6.479  0.842E-01  0.578E-02  0.392E-01  0.392E-01
  -6.469  0.834E-01  0.612E-02  0.387E-01  0.387E-01
  -6.459  0.826E-01  0.647E-02  0.381E-01  0.381E-01
  -6.449  0.818E-01  0.683E-02  0.375E-01  0.375E-01
  -6.439  0.808E-01  0.721E-02  0.368E-01  0.368E-01
  -6.429  0.798E-01  0.759E-02  0.361E-01  0.361E-01
  -6.419  0.788E-01  0.799E-02  0.354E-01  0.354E-01
  -6.409  0.776E-01  0.839E-02  0.346E-01  0.346E-01
  -6.399  0.764E-01  0.881E-02  0.338E-01  0.338E-01
  -6.389  0.752E-01  0.924E-02  0.330E-01  0.330E-01
  -6.379  0.758E-01  0.106E-01  0.326E-01  0.326E-01
  -6.369  0.797E-01  0.133E-01  0.332E-01  0.332E-01
  -6.359  0.822E-01  0.157E-01  0.333E-01  0.333E-01
  -6.349  0.834E-01  0.178E-01  0.328E-01  0.328E-01
  -6.339  0.833E-01  0.197E-01  0.318E-01  0.318E-01
  -6.329  0.819E-01  0.213E-01  0.303E-01  0.303E-01
  -6.319  0.102E+00  0.344E-01  0.337E-01  0.337E-01
  -6.309  0.106E+00  0.354E-01  0.351E-01  0.351E-01
  -6.299  0.322E-01  0.870E-02  0.117E-01  0.117E-01
  -6.289  0.333E-01  0.916E-02  0.121E-01  0.121E-01
  -6.279  0.355E-01  0.103E-01  0.126E-01  0.126E-01
  -6.269  0.378E-01  0.114E-01  0.132E-01  0.132E-01
  -6.259  0.401E-01  0.123E-01  0.139E-01  0.139E-01
  -6.249  0.424E-01  0.132E-01  0.146E-01  0.146E-01
  -6.239  0.436E-01  0.140E-01  0.148E-01  0.148E-01
  -6.229  0.468E-01  0.158E-01  0.155E-01  0.155E-01
  -6.219  0.501E-01  0.176E-01  0.162E-01  0.162E-01
  -6.209  0.534E-01  0.195E-01  0.169E-01  0.169E-01
  -6.199  0.568E-01  0.216E-01  0.176E-01  0.176E-01
  -6.189  0.634E-01  0.239E-01  0.198E-01  0.198E-01
  -6.179  0.664E-01  0.262E-01  0.201E-01  0.201E-01
  -6.169  0.694E-01  0.285E-01  0.204E-01  0.204E-01
  -6.159  0.750E-01  0.335E-01  0.207E-01  0.207E-01
  -6.149  0.775E-01  0.355E-01  0.210E-01  0.210E-01
  -6.139  0.803E-01  0.376E-01  0.213E-01  0.213E-01
  -6.129  0.841E-01  0.406E-01  0.217E-01  0.217E-01
  -6.119  0.890E-01  0.446E-01  0.222E-01  0.222E-01
  -6.109  0.949E-01  0.496E-01  0.226E-01  0.226E-01
  -6.099  0.101E+00  0.544E-01  0.231E-01  0.231E-01
  -6.089  0.108E+00  0.613E-01  0.235E-01  0.235E-01
  -6.079  0.114E+00  0.664E-01  0.238E-01  0.238E-01
  -6.069  0.118E+00  0.704E-01  0.240E-01  0.240E-01
  -6.059  0.125E+00  0.765E-01  0.243E-01  0.243E-01
  -6.049  0.140E+00  0.858E-01  0.268E-01  0.268E-01
  -6.039  0.157E+00  0.933E-01  0.321E-01  0.321E-01
  -6.029  0.168E+00  0.978E-01  0.350E-01  0.350E-01
  -6.019  0.175E+00  0.102E+00  0.365E-01  0.365E-01
  -6.009  0.182E+00  0.106E+00  0.378E-01  0.378E-01
  -5.999  0.189E+00  0.111E+00  0.389E-01  0.389E-01
  -5.989  0.195E+00  0.116E+00  0.397E-01  0.397E-01
  -5.979  0.198E+00  0.119E+00  0.397E-01  0.397E-01
  -5.969  0.194E+00  0.117E+00  0.386E-01  0.386E-01
  -5.959  0.188E+00  0.113E+00  0.377E-01  0.377E-01
  -5.949  0.180E+00  0.106E+00  0.370E-01  0.370E-01
  -5.939  0.169E+00  0.959E-01  0.364E-01  0.364E-01
  -5.929  0.155E+00  0.832E-01  0.359E-01  0.359E-01
  -5.919  0.143E+00  0.729E-01  0.353E-01  0.353E-01
  -5.909  0.372E+00  0.140E+00  0.116E+00  0.116E+00
  -5.899  0.122E+00  0.687E-01  0.267E-01  0.267E-01
  -5.889  0.121E+00  0.704E-01  0.252E-01  0.252E-01
  -5.879  0.120E+00  0.724E-01  0.237E-01  0.237E-01
  -5.869  0.115E+00  0.715E-01  0.215E-01  0.215E-01
  -5.859  0.111E+00  0.721E-01  0.195E-01  0.195E-01
  -5.849  0.108E+00  0.733E-01  0.175E-01  0.175E-01
  -5.839  0.105E+00  0.734E-01  0.156E-01  0.156E-01
  -5.829  0.996E-01  0.722E-01  0.137E-01  0.137E-01
  -5.819  0.937E-01  0.698E-01  0.119E-01  0.119E-01
  -5.809  0.869E-01  0.663E-01  0.103E-01  0.103E-01
  -5.799  0.792E-01  0.615E-01  0.884E-02  0.884E-02
  -5.789  0.704E-01  0.555E-01  0.746E-02  0.746E-02
  -5.779  0.607E-01  0.483E-01  0.621E-02  0.621E-02
  -5.769  0.500E-01  0.398E-01  0.508E-02  0.508E-02
  -5.759  0.382E-01  0.301E-01  0.406E-02  0.406E-02
  -5.749  0.255E-01  0.192E-01  0.316E-02  0.316E-02
  -5.739  0.118E-01  0.699E-02  0.239E-02  0.239E-02
  -5.729  0.836E-02  0.471E-02  0.182E-02  0.182E-02
  -5.719  0.608E-02  0.330E-02  0.139E-02  0.139E-02
  -5.709  0.474E-02  0.256E-02  0.109E-02  0.109E-02
  -5.699  0.431E-02  0.240E-02  0.956E-03  0.956E-03
  -5.689  0.430E-02  0.237E-02  0.964E-03  0.964E-03
  -5.679  0.424E-02  0.230E-02  0.974E-03  0.974E-03
  -5.669  0.415E-02  0.220E-02  0.975E-03  0.975E-03
  -5.659  0.401E-02  0.208E-02  0.964E-03  0.964E-03
  -5.649  0.382E-02  0.196E-02  0.930E-03  0.930E-03
  -5.639  0.365E-02  0.186E-02  0.899E-03  0.899E-03
  -5.629  0.349E-02  0.175E-02  0.869E-03  0.869E-03
  -5.619  0.334E-02  0.166E-02  0.842E-03  0.842E-03
  -5.609  0.321E-02  0.157E-02  0.817E-03  0.817E-03
  -5.599  0.308E-02  0.150E-02  0.795E-03  0.795E-03
  -5.589  0.297E-02  0.142E-02  0.774E-03  0.774E-03
  -5.579  0.287E-02  0.136E-02  0.756E-03  0.756E-03
  -5.569  0.253E-02  0.117E-02  0.683E-03  0.683E-03
  -5.559  0.246E-02  0.112E-02  0.672E-03  0.672E-03
  -5.549  0.239E-02  0.107E-02  0.662E-03  0.662E-03
  -5.539  0.232E-02  0.102E-02  0.652E-03  0.652E-03
  -5.529  0.226E-02  0.975E-03  0.642E-03  0.642E-03
  -5.519  0.219E-02  0.930E-03  0.632E-03  0.632E-03
  -5.509  0.213E-02  0.886E-03  0.622E-03  0.622E-03
  -5.499  0.207E-02  0.843E-03  0.612E-03  0.612E-03
  -5.489  0.201E-02  0.802E-03  0.603E-03  0.603E-03
  -5.479  0.195E-02  0.761E-03  0.593E-03  0.593E-03
  -5.469  0.189E-02  0.722E-03  0.584E-03  0.584E-03
  -5.459  0.183E-02  0.685E-03  0.574E-03  0.574E-03
  -5.449  0.178E-02  0.648E-03  0.565E-03  0.565E-03
  -5.439  0.172E-02  0.613E-03  0.556E-03  0.556E-03
  -5.429  0.167E-02  0.579E-03  0.547E-03  0.547E-03
  -5.419  0.162E-02  0.546E-03  0.538E-03  0.538E-03
  -5.409  0.157E-02  0.515E-03  0.529E-03  0.529E-03
  -5.399  0.387E-02  0.727E-03  0.157E-02  0.157E-02
  -5.389  0.190E-02  0.501E-03  0.699E-03  0.699E-03
  -5.379  0.110E-02  0.432E-03  0.335E-03  0.335E-03
  -5.369  0.128E-02  0.497E-03  0.392E-03  0.392E-03
  -5.359  0.203E-02  0.679E-03  0.675E-03  0.675E-03
  -5.349  0.325E-02  0.900E-03  0.117E-02  0.117E-02
  -5.339  0.493E-02  0.116E-02  0.189E-02  0.189E-02
  -5.329  0.709E-02  0.146E-02  0.282E-02  0.282E-02
  -5.319  0.972E-02  0.179E-02  0.396E-02  0.396E-02
  -5.309  0.128E-01  0.217E-02  0.532E-02  0.532E-02
  -5.299  0.164E-01  0.258E-02  0.690E-02  0.690E-02
  -5.289  0.204E-01  0.303E-02  0.869E-02  0.869E-02
  -5.279  0.249E-01  0.353E-02  0.107E-01  0.107E-01
  -5.269  0.558E-01  0.805E-02  0.239E-01  0.239E-01
  -5.259  0.133E+00  0.232E-01  0.550E-01  0.550E-01
  -5.249  0.174E+00  0.379E-01  0.679E-01  0.679E-01
  -5.239  0.191E+00  0.525E-01  0.695E-01  0.695E-01
  -5.229  0.217E+00  0.604E-01  0.783E-01  0.783E-01
  -5.219  0.235E+00  0.559E-01  0.894E-01  0.894E-01
  -5.209  0.173E+00  0.523E-01  0.606E-01  0.606E-01
  -5.199  0.138E+00  0.423E-01  0.481E-01  0.481E-01
  -5.189  0.141E+00  0.404E-01  0.502E-01  0.502E-01
  -5.179  0.169E+00  0.519E-01  0.586E-01  0.586E-01
  -5.169  0.234E+00  0.793E-01  0.775E-01  0.775E-01
  -5.159  0.178E+00  0.605E-01  0.589E-01  0.589E-01
  -5.149  0.127E+00  0.451E-01  0.410E-01  0.410E-01
  -5.139  0.131E+00  0.506E-01  0.403E-01  0.403E-01
  -5.129  0.128E+00  0.522E-01  0.378E-01  0.378E-01
  -5.119  0.123E+00  0.525E-01  0.355E-01  0.355E-01
  -5.109  0.119E+00  0.520E-01  0.335E-01  0.335E-01
  -5.099  0.114E+00  0.505E-01  0.320E-01  0.320E-01
  -5.089  0.113E+00  0.482E-01  0.323E-01  0.323E-01
  -5.079  0.118E+00  0.542E-01  0.320E-01  0.320E-01
  -5.069  0.113E+00  0.494E-01  0.318E-01  0.318E-01
  -5.059  0.108E+00  0.449E-01  0.316E-01  0.316E-01
  -5.049  0.103E+00  0.407E-01  0.314E-01  0.314E-01
  -5.039  0.992E-01  0.369E-01  0.312E-01  0.312E-01
  -5.029  0.949E-01  0.334E-01  0.308E-01  0.308E-01
  -5.019  0.906E-01  0.301E-01  0.302E-01  0.302E-01
  -5.009  0.897E-01  0.276E-01  0.311E-01  0.311E-01
  -4.999  0.970E-01  0.263E-01  0.354E-01  0.354E-01
  -4.989  0.112E+00  0.263E-01  0.431E-01  0.431E-01
  -4.979  0.137E+00  0.281E-01  0.545E-01  0.545E-01
  -4.969  0.171E+00  0.314E-01  0.696E-01  0.696E-01
  -4.959  0.213E+00  0.357E-01  0.885E-01  0.885E-01
  -4.949  0.565E-01  0.372E-01  0.965E-02  0.965E-02
  -4.939  0.750E-01  0.426E-01  0.162E-01  0.162E-01
  -4.929  0.649E-01  0.425E-01  0.112E-01  0.112E-01
  -4.919  0.417E-01  0.272E-01  0.725E-02  0.725E-02
  -4.909  0.264E-01  0.183E-01  0.405E-02  0.405E-02
  -4.899  0.164E-01  0.132E-01  0.164E-02  0.164E-02
  -4.889  0.179E+00  0.538E-01  0.624E-01  0.624E-01
  -4.879  0.275E+00  0.522E-01  0.111E+00  0.111E+00
  -4.869  0.117E+00  0.358E-01  0.403E-01  0.403E-01
  -4.859  0.509E-01  0.450E-01  0.291E-02  0.291E-02
  -4.849  0.620E-01  0.534E-01  0.430E-02  0.430E-02
  -4.839  0.720E-01  0.590E-01  0.651E-02  0.651E-02
  -4.829  0.781E-01  0.612E-01  0.845E-02  0.845E-02
  -4.819  0.799E-01  0.600E-01  0.997E-02  0.997E-02
  -4.809  0.800E-01  0.566E-01  0.117E-01  0.117E-01
  -4.799  0.803E-01  0.557E-01  0.123E-01  0.123E-01
  -4.789  0.944E-01  0.675E-01  0.135E-01  0.135E-01
  -4.779  0.120E+00  0.897E-01  0.153E-01  0.153E-01
  -4.769  0.153E+00  0.119E+00  0.172E-01  0.172E-01
  -4.759  0.440E-01  0.217E-01  0.112E-01  0.112E-01
  -4.749  0.387E-01  0.162E-01  0.113E-01  0.113E-01
  -4.739  0.348E-01  0.123E-01  0.113E-01  0.113E-01
  -4.729  0.324E-01  0.985E-02  0.113E-01  0.113E-01
  -4.719  0.310E-01  0.855E-02  0.112E-01  0.112E-01
  -4.709  0.305E-01  0.827E-02  0.111E-01  0.111E-01
  -4.699  0.309E-01  0.901E-02  0.109E-01  0.109E-01
  -4.689  0.436E-01  0.108E-01  0.164E-01  0.164E-01
  -4.679  0.797E-01  0.128E-01  0.335E-01  0.335E-01
  -4.669  0.112E+00  0.158E-01  0.480E-01  0.480E-01
  -4.659  0.119E+00  0.143E-01  0.522E-01  0.522E-01
  -4.649  0.106E+00  0.123E-01  0.468E-01  0.468E-01
  -4.639  0.732E-01  0.971E-02  0.317E-01  0.317E-01
  -4.629  0.249E-01  0.789E-02  0.853E-02  0.853E-02
  -4.619  0.982E-01  0.919E-01  0.315E-02  0.315E-02
  -4.609  0.166E+00  0.145E+00  0.105E-01  0.105E-01
  -4.599  0.142E+00  0.106E+00  0.180E-01  0.180E-01
  -4.589  0.499E-01  0.391E-01  0.542E-02  0.542E-02
  -4.579  0.521E-01  0.407E-01  0.570E-02  0.570E-02
  -4.569  0.577E-01  0.419E-01  0.790E-02  0.790E-02
  -4.559  0.111E+00  0.429E-01  0.342E-01  0.342E-01
  -4.549  0.166E+00  0.439E-01  0.610E-01  0.610E-01
  -4.539  0.221E+00  0.450E-01  0.881E-01  0.881E-01
  -4.529  0.277E+00  0.461E-01  0.116E+00  0.116E+00
  -4.519  0.332E+00  0.487E-01  0.142E+00  0.142E+00
  -4.509  0.433E+00  0.625E-01  0.185E+00  0.185E+00
  -4.499  0.584E+00  0.648E-01  0.259E+00  0.259E+00
  -4.489  0.780E+00  0.539E-01  0.363E+00  0.363E+00
  -4.479  0.139E+01  0.363E-01  0.677E+00  0.677E+00
  -4.469  0.288E+00  0.277E-01  0.130E+00  0.130E+00
  -4.459  0.771E-01  0.282E-01  0.244E-01  0.244E-01
  -4.449  0.884E-01  0.310E-01  0.287E-01  0.287E-01
  -4.439  0.145E+00  0.478E-01  0.487E-01  0.487E-01
  -4.429  0.121E+00  0.405E-01  0.402E-01  0.402E-01
  -4.419  0.105E+00  0.345E-01  0.351E-01  0.351E-01
  -4.409  0.969E-01  0.297E-01  0.336E-01  0.336E-01
  -4.399  0.972E-01  0.261E-01  0.356E-01  0.356E-01
  -4.389  0.108E+00  0.259E-01  0.411E-01  0.411E-01
  -4.379  0.122E+00  0.266E-01  0.479E-01  0.479E-01
  -4.369  0.138E+00  0.266E-01  0.555E-01  0.555E-01
  -4.359  0.181E+00  0.483E-01  0.664E-01  0.664E-01
  -4.349  0.321E+00  0.624E-01  0.129E+00  0.129E+00
  -4.339  0.497E+00  0.673E-01  0.215E+00  0.215E+00
  -4.329  0.586E+00  0.639E-01  0.261E+00  0.261E+00
  -4.319  0.588E+00  0.616E-01  0.263E+00  0.263E+00
  -4.309  0.602E+00  0.620E-01  0.270E+00  0.270E+00
  -4.299  0.643E+00  0.610E-01  0.291E+00  0.291E+00
  -4.289  0.671E+00  0.513E-01  0.310E+00  0.310E+00
  -4.279  0.688E+00  0.411E-01  0.324E+00  0.324E+00
  -4.269  0.695E+00  0.305E-01  0.332E+00  0.332E+00
  -4.259  0.642E+00  0.195E-01  0.311E+00  0.311E+00
  -4.249  0.239E+00  0.102E-01  0.114E+00  0.114E+00
  -4.239  0.238E+00  0.110E-01  0.114E+00  0.114E+00
  -4.229  0.276E+00  0.229E-01  0.127E+00  0.127E+00
  -4.219  0.276E+00  0.292E-01  0.124E+00  0.124E+00
  -4.209  0.273E+00  0.380E-01  0.117E+00  0.117E+00
  -4.199  0.265E+00  0.469E-01  0.109E+00  0.109E+00
  -4.189  0.261E+00  0.572E-01  0.102E+00  0.102E+00
  -4.179  0.262E+00  0.692E-01  0.962E-01  0.962E-01
  -4.169  0.267E+00  0.829E-01  0.919E-01  0.919E-01
  -4.159  0.276E+00  0.982E-01  0.890E-01  0.890E-01
  -4.149  0.290E+00  0.115E+00  0.876E-01  0.876E-01
  -4.139  0.305E+00  0.130E+00  0.872E-01  0.872E-01
  -4.129  0.323E+00  0.147E+00  0.879E-01  0.879E-01
  -4.119  0.349E+00  0.168E+00  0.906E-01  0.906E-01
  -4.109  0.341E+00  0.157E+00  0.918E-01  0.918E-01
  -4.099  0.267E+00  0.863E-01  0.905E-01  0.905E-01
  -4.089  0.280E+00  0.881E-01  0.961E-01  0.961E-01
  -4.079  0.293E+00  0.900E-01  0.102E+00  0.102E+00
  -4.069  0.309E+00  0.921E-01  0.109E+00  0.109E+00
  -4.059  0.327E+00  0.944E-01  0.116E+00  0.116E+00
  -4.049  0.344E+00  0.969E-01  0.124E+00  0.124E+00
  -4.039  0.361E+00  0.995E-01  0.131E+00  0.131E+00
  -4.029  0.379E+00  0.102E+00  0.138E+00  0.138E+00
  -4.019  0.396E+00  0.105E+00  0.145E+00  0.145E+00
  -4.009  0.413E+00  0.108E+00  0.152E+00  0.152E+00
  -3.999  0.430E+00  0.112E+00  0.159E+00  0.159E+00
  -3.989  0.585E+00  0.116E+00  0.235E+00  0.235E+00
  -3.979  0.499E+00  0.949E-01  0.202E+00  0.202E+00
  -3.969  0.422E+00  0.761E-01  0.173E+00  0.173E+00
  -3.959  0.474E+00  0.165E+00  0.155E+00  0.155E+00
  -3.949  0.474E+00  0.191E+00  0.141E+00  0.141E+00
  -3.939  0.470E+00  0.205E+00  0.132E+00  0.132E+00
  -3.929  0.381E+00  0.112E+00  0.135E+00  0.135E+00
  -3.919  0.382E+00  0.102E+00  0.140E+00  0.140E+00
  -3.909  0.392E+00  0.968E-01  0.147E+00  0.147E+00
  -3.899  0.411E+00  0.949E-01  0.158E+00  0.158E+00
  -3.889  0.433E+00  0.949E-01  0.169E+00  0.169E+00
  -3.879  0.455E+00  0.957E-01  0.179E+00  0.179E+00
  -3.869  0.475E+00  0.973E-01  0.189E+00  0.189E+00
  -3.859  0.493E+00  0.996E-01  0.197E+00  0.197E+00
  -3.849  0.507E+00  0.995E-01  0.204E+00  0.204E+00
  -3.839  0.499E+00  0.850E-01  0.207E+00  0.207E+00
  -3.829  0.482E+00  0.705E-01  0.206E+00  0.206E+00
  -3.819  0.464E+00  0.586E-01  0.203E+00  0.203E+00
  -3.809  0.182E+00  0.260E-01  0.779E-01  0.779E-01
  -3.799  0.310E+00  0.249E-01  0.142E+00  0.142E+00
  -3.789  0.394E+00  0.268E-01  0.184E+00  0.184E+00
  -3.779  0.431E+00  0.316E-01  0.200E+00  0.200E+00
  -3.769  0.415E+00  0.392E-01  0.188E+00  0.188E+00
  -3.759  0.346E+00  0.501E-01  0.148E+00  0.148E+00
  -3.749  0.234E+00  0.662E-01  0.841E-01  0.841E-01
  -3.739  0.360E+00  0.876E-01  0.136E+00  0.136E+00
  -3.729  0.168E+00  0.335E-01  0.674E-01  0.674E-01
  -3.719  0.110E+00  0.266E-01  0.417E-01  0.417E-01
  -3.709  0.105E+00  0.236E-01  0.408E-01  0.408E-01
  -3.699  0.103E+00  0.211E-01  0.411E-01  0.411E-01
  -3.689  0.117E+00  0.195E-01  0.485E-01  0.485E-01
  -3.679  0.153E+00  0.188E-01  0.673E-01  0.673E-01
  -3.669  0.214E+00  0.189E-01  0.977E-01  0.977E-01
  -3.659  0.298E+00  0.198E-01  0.139E+00  0.139E+00
  -3.649  0.404E+00  0.211E-01  0.191E+00  0.191E+00
  -3.639  0.535E+00  0.226E-01  0.256E+00  0.256E+00
  -3.629  0.147E+00  0.219E-01  0.628E-01  0.628E-01
  -3.619  0.158E+00  0.234E-01  0.672E-01  0.672E-01
  -3.609  0.169E+00  0.251E-01  0.720E-01  0.720E-01
  -3.599  0.180E+00  0.265E-01  0.770E-01  0.770E-01
  -3.589  0.192E+00  0.279E-01  0.822E-01  0.822E-01
  -3.579  0.205E+00  0.290E-01  0.877E-01  0.877E-01
  -3.569  0.217E+00  0.301E-01  0.935E-01  0.935E-01
  -3.559  0.230E+00  0.310E-01  0.995E-01  0.995E-01
  -3.549  0.243E+00  0.317E-01  0.106E+00  0.106E+00
  -3.539  0.266E+00  0.324E-01  0.117E+00  0.117E+00
  -3.529  0.306E+00  0.332E-01  0.137E+00  0.137E+00
  -3.519  0.364E+00  0.348E-01  0.165E+00  0.165E+00
  -3.509  0.448E+00  0.399E-01  0.204E+00  0.204E+00
  -3.499  0.558E+00  0.485E-01  0.255E+00  0.255E+00
  -3.489  0.377E+00  0.569E-01  0.160E+00  0.160E+00
  -3.479  0.422E+00  0.720E-01  0.175E+00  0.175E+00
  -3.469  0.320E+00  0.300E-01  0.145E+00  0.145E+00
  -3.459  0.327E+00  0.288E-01  0.149E+00  0.149E+00
  -3.449  0.333E+00  0.275E-01  0.153E+00  0.153E+00
  -3.439  0.339E+00  0.261E-01  0.156E+00  0.156E+00
  -3.429  0.344E+00  0.247E-01  0.160E+00  0.160E+00
  -3.419  0.348E+00  0.233E-01  0.162E+00  0.162E+00
  -3.409  0.350E+00  0.217E-01  0.164E+00  0.164E+00
  -3.399  0.352E+00  0.202E-01  0.166E+00  0.166E+00
  -3.389  0.354E+00  0.186E-01  0.167E+00  0.167E+00
  -3.379  0.354E+00  0.169E-01  0.168E+00  0.168E+00
  -3.369  0.353E+00  0.152E-01  0.169E+00  0.169E+00
  -3.359  0.354E+00  0.142E-01  0.170E+00  0.170E+00
  -3.349  0.407E+00  0.136E-01  0.197E+00  0.197E+00
  -3.339  0.443E+00  0.134E-01  0.215E+00  0.215E+00
  -3.329  0.469E+00  0.134E-01  0.228E+00  0.228E+00
  -3.319  0.485E+00  0.135E-01  0.236E+00  0.236E+00
  -3.309  0.490E+00  0.139E-01  0.238E+00  0.238E+00
  -3.299  0.485E+00  0.145E-01  0.235E+00  0.235E+00
  -3.289  0.469E+00  0.153E-01  0.227E+00  0.227E+00
  -3.279  0.443E+00  0.165E-01  0.213E+00  0.213E+00
  -3.269  0.407E+00  0.179E-01  0.195E+00  0.195E+00
  -3.259  0.376E+00  0.321E-01  0.172E+00  0.172E+00
  -3.249  0.383E+00  0.392E-01  0.172E+00  0.172E+00
  -3.239  0.378E+00  0.357E-01  0.171E+00  0.171E+00
  -3.229  0.363E+00  0.215E-01  0.171E+00  0.171E+00
  -3.219  0.357E+00  0.178E-01  0.170E+00  0.170E+00
  -3.209  0.355E+00  0.184E-01  0.168E+00  0.168E+00
  -3.199  0.353E+00  0.191E-01  0.167E+00  0.167E+00
  -3.189  0.350E+00  0.198E-01  0.165E+00  0.165E+00
  -3.179  0.349E+00  0.205E-01  0.164E+00  0.164E+00
  -3.169  0.349E+00  0.213E-01  0.164E+00  0.164E+00
  -3.159  0.349E+00  0.222E-01  0.163E+00  0.163E+00
  -3.149  0.349E+00  0.231E-01  0.163E+00  0.163E+00
  -3.139  0.348E+00  0.224E-01  0.163E+00  0.163E+00
  -3.129  0.350E+00  0.225E-01  0.164E+00  0.164E+00
  -3.119  0.354E+00  0.231E-01  0.166E+00  0.166E+00
  -3.109  0.361E+00  0.239E-01  0.168E+00  0.168E+00
  -3.099  0.368E+00  0.246E-01  0.172E+00  0.172E+00
  -3.089  0.376E+00  0.252E-01  0.175E+00  0.175E+00
  -3.079  0.384E+00  0.258E-01  0.179E+00  0.179E+00
  -3.069  0.393E+00  0.262E-01  0.184E+00  0.184E+00
  -3.059  0.389E+00  0.264E-01  0.181E+00  0.181E+00
  -3.049  0.382E+00  0.265E-01  0.178E+00  0.178E+00
  -3.039  0.375E+00  0.265E-01  0.174E+00  0.174E+00
  -3.029  0.534E+00  0.275E-01  0.253E+00  0.253E+00
  -3.019  0.620E+00  0.312E-01  0.295E+00  0.295E+00
  -3.009  0.496E+00  0.297E-01  0.233E+00  0.233E+00
  -2.999  0.495E+00  0.315E-01  0.232E+00  0.232E+00
  -2.989  0.492E+00  0.337E-01  0.229E+00  0.229E+00
  -2.979  0.489E+00  0.362E-01  0.227E+00  0.227E+00
  -2.969  0.485E+00  0.389E-01  0.223E+00  0.223E+00
  -2.959  0.481E+00  0.419E-01  0.219E+00  0.219E+00
  -2.949  0.494E+00  0.570E-01  0.218E+00  0.218E+00
  -2.939  0.501E+00  0.561E-01  0.222E+00  0.222E+00
  -2.929  0.502E+00  0.559E-01  0.223E+00  0.223E+00
  -2.919  0.497E+00  0.565E-01  0.221E+00  0.221E+00
  -2.909  0.679E+00  0.763E-01  0.301E+00  0.301E+00
  -2.899  0.582E+00  0.766E-01  0.253E+00  0.253E+00
  -2.889  0.492E+00  0.786E-01  0.207E+00  0.207E+00
  -2.879  0.427E+00  0.825E-01  0.172E+00  0.172E+00
  -2.869  0.316E+00  0.704E-01  0.123E+00  0.123E+00
  -2.859  0.277E+00  0.569E-01  0.110E+00  0.110E+00
  -2.849  0.338E+00  0.580E-01  0.140E+00  0.140E+00
  -2.839  0.399E+00  0.616E-01  0.168E+00  0.168E+00
  -2.829  0.430E+00  0.671E-01  0.181E+00  0.181E+00
  -2.819  0.437E+00  0.714E-01  0.183E+00  0.183E+00
  -2.809  0.444E+00  0.743E-01  0.185E+00  0.185E+00
  -2.799  0.492E+00  0.845E-01  0.204E+00  0.204E+00
  -2.789  0.861E+00  0.271E+00  0.295E+00  0.295E+00
  -2.779  0.600E+00  0.947E-01  0.253E+00  0.253E+00
  -2.769  0.686E+00  0.114E+00  0.286E+00  0.286E+00
  -2.759  0.769E+00  0.135E+00  0.317E+00  0.317E+00
  -2.749  0.110E+01  0.159E+00  0.472E+00  0.472E+00
  -2.739  0.104E+01  0.185E+00  0.429E+00  0.429E+00
  -2.729  0.998E+00  0.214E+00  0.392E+00  0.392E+00
  -2.719  0.966E+00  0.245E+00  0.361E+00  0.361E+00
  -2.709  0.319E+01  0.166E+01  0.763E+00  0.763E+00
  -2.699  0.140E+01  0.513E+00  0.444E+00  0.444E+00
  -2.689  0.137E+01  0.662E+00  0.354E+00  0.354E+00
  -2.679  0.156E+01  0.839E+00  0.360E+00  0.360E+00
  -2.669  0.177E+01  0.972E+00  0.400E+00  0.400E+00
  -2.659  0.232E+01  0.109E+01  0.613E+00  0.613E+00
  -2.649  0.233E+01  0.103E+01  0.650E+00  0.650E+00
  -2.639  0.262E+01  0.119E+01  0.717E+00  0.717E+00
  -2.629  0.191E+01  0.854E+00  0.529E+00  0.529E+00
  -2.619  0.151E+01  0.707E+00  0.401E+00  0.401E+00
  -2.609  0.776E+00  0.260E+00  0.258E+00  0.258E+00
  -2.599  0.550E+00  0.221E+00  0.165E+00  0.165E+00
  -2.589  0.306E+00  0.201E+00  0.526E-01  0.526E-01
  -2.579  0.265E+00  0.171E+00  0.470E-01  0.470E-01
  -2.569  0.230E+00  0.145E+00  0.425E-01  0.425E-01
  -2.559  0.371E+00  0.251E+00  0.600E-01  0.600E-01
  -2.549  0.109E+00  0.541E-01  0.274E-01  0.274E-01
  -2.539  0.673E+00  0.938E-01  0.289E+00  0.289E+00
  -2.529  0.250E+00  0.105E+00  0.722E-01  0.722E-01
  -2.519  0.252E+00  0.119E+00  0.664E-01  0.664E-01
  -2.509  0.904E+00  0.196E+00  0.354E+00  0.354E+00
  -2.499  0.902E+00  0.209E+00  0.346E+00  0.346E+00
  -2.489  0.883E+00  0.213E+00  0.335E+00  0.335E+00
  -2.479  0.844E+00  0.205E+00  0.319E+00  0.319E+00
  -2.469  0.784E+00  0.187E+00  0.299E+00  0.299E+00
  -2.459  0.703E+00  0.156E+00  0.273E+00  0.273E+00
  -2.449  0.601E+00  0.115E+00  0.243E+00  0.243E+00
  -2.439  0.486E+00  0.651E-01  0.210E+00  0.210E+00
  -2.429  0.454E+00  0.527E-01  0.201E+00  0.201E+00
  -2.419  0.492E+00  0.125E+00  0.184E+00  0.184E+00
  -2.409  0.663E+00  0.336E+00  0.164E+00  0.164E+00
  -2.399  0.816E+00  0.544E+00  0.136E+00  0.136E+00
  -2.389  0.164E+01  0.106E+01  0.290E+00  0.290E+00
  -2.379  0.470E+01  0.714E+00  0.199E+01  0.199E+01
  -2.369  0.836E+00  0.339E+00  0.248E+00  0.248E+00
  -2.359  0.556E+00  0.203E+00  0.176E+00  0.176E+00
  -2.349  0.155E+01  0.923E+00  0.312E+00  0.312E+00
  -2.339  0.833E+00  0.479E+00  0.177E+00  0.177E+00
  -2.329  0.531E+00  0.311E+00  0.110E+00  0.110E+00
  -2.319  0.461E+00  0.246E+00  0.108E+00  0.108E+00
  -2.309  0.419E+00  0.192E+00  0.114E+00  0.114E+00
  -2.299  0.309E+00  0.113E+00  0.980E-01  0.980E-01
  -2.289  0.203E+00  0.613E-01  0.708E-01  0.708E-01
  -2.279  0.183E+00  0.638E-01  0.595E-01  0.595E-01
  -2.269  0.168E+00  0.703E-01  0.487E-01  0.487E-01
  -2.259  0.168E+00  0.766E-01  0.457E-01  0.457E-01
  -2.249  0.206E+00  0.101E+00  0.522E-01  0.522E-01
  -2.239  0.247E+00  0.127E+00  0.600E-01  0.600E-01
  -2.229  0.289E+00  0.153E+00  0.680E-01  0.680E-01
  -2.219  0.329E+00  0.177E+00  0.760E-01  0.760E-01
  -2.209  0.368E+00  0.200E+00  0.842E-01  0.842E-01
  -2.199  0.407E+00  0.222E+00  0.924E-01  0.924E-01
  -2.189  0.445E+00  0.243E+00  0.101E+00  0.101E+00
  -2.179  0.199E+01  0.486E+00  0.752E+00  0.752E+00
  -2.169  0.375E+00  0.138E+00  0.119E+00  0.119E+00
  -2.159  0.591E+00  0.182E+00  0.204E+00  0.204E+00
  -2.149  0.111E+01  0.296E+00  0.405E+00  0.405E+00
  -2.139  0.191E+01  0.420E+00  0.744E+00  0.744E+00
  -2.129  0.245E+01  0.534E+00  0.959E+00  0.959E+00
  -2.119  0.861E+00  0.545E+00  0.158E+00  0.158E+00
  -2.109  0.805E+00  0.564E+00  0.121E+00  0.121E+00
  -2.099  0.108E+01  0.862E+00  0.110E+00  0.110E+00
  -2.089  0.222E+00  0.107E+00  0.577E-01  0.577E-01
  -2.079  0.214E+00  0.108E+00  0.530E-01  0.530E-01
  -2.069  0.209E+00  0.109E+00  0.502E-01  0.502E-01
  -2.059  0.208E+00  0.110E+00  0.492E-01  0.492E-01
  -2.049  0.231E+00  0.116E+00  0.573E-01  0.573E-01
  -2.039  0.242E+00  0.120E+00  0.610E-01  0.610E-01
  -2.029  0.252E+00  0.125E+00  0.638E-01  0.638E-01
  -2.019  0.270E+00  0.137E+00  0.664E-01  0.664E-01
  -2.009  0.280E+00  0.144E+00  0.680E-01  0.680E-01
  -1.999  0.289E+00  0.151E+00  0.687E-01  0.687E-01
  -1.989  0.296E+00  0.159E+00  0.686E-01  0.686E-01
  -1.979  0.302E+00  0.166E+00  0.678E-01  0.678E-01
  -1.969  0.307E+00  0.174E+00  0.661E-01  0.661E-01
  -1.959  0.310E+00  0.183E+00  0.637E-01  0.637E-01
  -1.949  0.312E+00  0.191E+00  0.605E-01  0.605E-01
  -1.939  0.313E+00  0.200E+00  0.563E-01  0.563E-01
  -1.929  0.311E+00  0.209E+00  0.512E-01  0.512E-01
  -1.919  0.309E+00  0.218E+00  0.453E-01  0.453E-01
  -1.909  0.359E+00  0.239E+00  0.602E-01  0.602E-01
  -1.899  0.430E+00  0.290E+00  0.696E-01  0.696E-01
  -1.889  0.511E+00  0.372E+00  0.695E-01  0.695E-01
  -1.879  0.626E+00  0.485E+00  0.705E-01  0.705E-01
  -1.869  0.772E+00  0.467E+00  0.153E+00  0.153E+00
  -1.859  0.978E+00  0.429E+00  0.274E+00  0.274E+00
  -1.849  0.124E+01  0.416E+00  0.410E+00  0.410E+00
  -1.839  0.725E+01  0.358E+01  0.184E+01  0.184E+01
  -1.829  0.752E+00  0.333E+00  0.209E+00  0.209E+00
  -1.819  0.666E+00  0.337E+00  0.164E+00  0.164E+00
  -1.809  0.577E+00  0.321E+00  0.128E+00  0.128E+00
  -1.799  0.488E+00  0.285E+00  0.101E+00  0.101E+00
  -1.789  0.463E+00  0.286E+00  0.887E-01  0.887E-01
  -1.779  0.440E+00  0.286E+00  0.773E-01  0.773E-01
  -1.769  0.418E+00  0.284E+00  0.672E-01  0.672E-01
  -1.759  0.398E+00  0.281E+00  0.585E-01  0.585E-01
  -1.749  0.379E+00  0.276E+00  0.512E-01  0.512E-01
  -1.739  0.361E+00  0.270E+00  0.453E-01  0.453E-01
  -1.729  0.344E+00  0.263E+00  0.407E-01  0.407E-01
  -1.719  0.329E+00  0.254E+00  0.375E-01  0.375E-01
  -1.709  0.316E+00  0.244E+00  0.357E-01  0.357E-01
  -1.699  0.322E+00  0.249E+00  0.367E-01  0.367E-01
  -1.689  0.332E+00  0.255E+00  0.383E-01  0.383E-01
  -1.679  0.340E+00  0.260E+00  0.399E-01  0.399E-01
  -1.669  0.348E+00  0.265E+00  0.416E-01  0.416E-01
  -1.659  0.355E+00  0.268E+00  0.434E-01  0.434E-01
  -1.649  0.361E+00  0.270E+00  0.453E-01  0.453E-01
  -1.639  0.294E+00  0.218E+00  0.382E-01  0.382E-01
  -1.629  0.333E+00  0.192E+00  0.704E-01  0.704E-01
  -1.619  0.627E+00  0.191E+00  0.218E+00  0.218E+00
  -1.609  0.893E+00  0.226E+00  0.333E+00  0.333E+00
  -1.599  0.113E+01  0.297E+00  0.416E+00  0.416E+00
  -1.589  0.141E+01  0.430E+00  0.488E+00  0.488E+00
  -1.579  0.172E+01  0.113E+01  0.293E+00  0.293E+00
  -1.569  0.485E+00  0.198E+00  0.144E+00  0.144E+00
  -1.559  0.381E+00  0.153E+00  0.114E+00  0.114E+00
  -1.549  0.161E+01  0.124E+01  0.183E+00  0.183E+00
  -1.539  0.608E+00  0.325E+00  0.141E+00  0.141E+00
  -1.529  0.552E+00  0.277E+00  0.137E+00  0.137E+00
  -1.519  0.500E+00  0.236E+00  0.132E+00  0.132E+00
  -1.509  0.454E+00  0.201E+00  0.126E+00  0.126E+00
  -1.499  0.412E+00  0.173E+00  0.119E+00  0.119E+00
  -1.489  0.375E+00  0.152E+00  0.111E+00  0.111E+00
  -1.479  0.342E+00  0.138E+00  0.102E+00  0.102E+00
  -1.469  0.315E+00  0.130E+00  0.923E-01  0.923E-01
  -1.459  0.293E+00  0.129E+00  0.819E-01  0.819E-01
  -1.449  0.315E+00  0.156E+00  0.794E-01  0.794E-01
  -1.439  0.447E+00  0.186E+00  0.131E+00  0.131E+00
  -1.429  0.438E+00  0.213E+00  0.112E+00  0.112E+00
  -1.419  0.426E+00  0.237E+00  0.944E-01  0.944E-01
  -1.409  0.412E+00  0.258E+00  0.767E-01  0.767E-01
  -1.399  0.396E+00  0.277E+00  0.593E-01  0.593E-01
  -1.389  0.377E+00  0.293E+00  0.420E-01  0.420E-01
  -1.379  0.357E+00  0.307E+00  0.251E-01  0.251E-01
  -1.369  0.365E+00  0.317E+00  0.237E-01  0.237E-01
  -1.359  0.378E+00  0.325E+00  0.262E-01  0.262E-01
  -1.349  0.388E+00  0.330E+00  0.290E-01  0.290E-01
  -1.339  0.397E+00  0.333E+00  0.321E-01  0.321E-01
  -1.329  0.403E+00  0.332E+00  0.354E-01  0.354E-01
  -1.319  0.218E+00  0.179E+00  0.192E-01  0.192E-01
  -1.309  0.217E+00  0.178E+00  0.193E-01  0.193E-01
  -1.299  0.216E+00  0.177E+00  0.193E-01  0.193E-01
  -1.289  0.214E+00  0.176E+00  0.193E-01  0.193E-01
  -1.279  0.212E+00  0.174E+00  0.193E-01  0.193E-01
  -1.269  0.210E+00  0.172E+00  0.192E-01  0.192E-01
  -1.259  0.207E+00  0.169E+00  0.191E-01  0.191E-01
  -1.249  0.207E+00  0.169E+00  0.189E-01  0.189E-01
  -1.239  0.205E+00  0.168E+00  0.186E-01  0.186E-01
  -1.229  0.201E+00  0.164E+00  0.182E-01  0.182E-01
  -1.219  0.195E+00  0.160E+00  0.177E-01  0.177E-01
  -1.209  0.190E+00  0.156E+00  0.172E-01  0.172E-01
  -1.199  0.185E+00  0.151E+00  0.167E-01  0.167E-01
  -1.189  0.180E+00  0.147E+00  0.162E-01  0.162E-01
  -1.179  0.174E+00  0.143E+00  0.157E-01  0.157E-01
  -1.169  0.169E+00  0.138E+00  0.153E-01  0.153E-01
  -1.159  0.164E+00  0.134E+00  0.148E-01  0.148E-01
  -1.149  0.158E+00  0.129E+00  0.143E-01  0.143E-01
  -1.139  0.153E+00  0.125E+00  0.139E-01  0.139E-01
  -1.129  0.147E+00  0.120E+00  0.134E-01  0.134E-01
  -1.119  0.142E+00  0.116E+00  0.129E-01  0.129E-01
  -1.109  0.136E+00  0.111E+00  0.125E-01  0.125E-01
  -1.099  0.133E+00  0.108E+00  0.122E-01  0.122E-01
  -1.089  0.131E+00  0.106E+00  0.121E-01  0.121E-01
  -1.079  0.129E+00  0.105E+00  0.121E-01  0.121E-01
  -1.069  0.127E+00  0.103E+00  0.120E-01  0.120E-01
  -1.059  0.124E+00  0.100E+00  0.119E-01  0.119E-01
  -1.049  0.121E+00  0.977E-01  0.118E-01  0.118E-01
  -1.039  0.118E+00  0.949E-01  0.117E-01  0.117E-01
  -1.029  0.115E+00  0.919E-01  0.116E-01  0.116E-01
  -1.019  0.112E+00  0.887E-01  0.115E-01  0.115E-01
  -1.009  0.108E+00  0.852E-01  0.114E-01  0.114E-01
  -0.999  0.104E+00  0.815E-01  0.113E-01  0.113E-01
  -0.989  0.100E+00  0.775E-01  0.112E-01  0.112E-01
  -0.979  0.956E-01  0.733E-01  0.111E-01  0.111E-01
  -0.969  0.910E-01  0.689E-01  0.110E-01  0.110E-01
  -0.959  0.861E-01  0.643E-01  0.109E-01  0.109E-01
  -0.949  0.839E-01  0.657E-01  0.911E-02  0.911E-02
  -0.939  0.780E-01  0.601E-01  0.897E-02  0.897E-02
  -0.929  0.723E-01  0.547E-01  0.882E-02  0.882E-02
  -0.919  0.668E-01  0.496E-01  0.863E-02  0.863E-02
  -0.909  0.616E-01  0.447E-01  0.843E-02  0.843E-02
  -0.899  0.565E-01  0.401E-01  0.820E-02  0.820E-02
  -0.889  0.516E-01  0.357E-01  0.794E-02  0.794E-02
  -0.879  0.470E-01  0.316E-01  0.766E-02  0.766E-02
  -0.869  0.425E-01  0.278E-01  0.736E-02  0.736E-02
  -0.859  0.382E-01  0.242E-01  0.703E-02  0.703E-02
  -0.849  0.342E-01  0.208E-01  0.668E-02  0.668E-02
  -0.839  0.303E-01  0.177E-01  0.630E-02  0.630E-02
  -0.829  0.266E-01  0.148E-01  0.590E-02  0.590E-02
  -0.819  0.232E-01  0.122E-01  0.548E-02  0.548E-02
  -0.809  0.199E-01  0.988E-02  0.503E-02  0.503E-02
  -0.799  0.169E-01  0.778E-02  0.456E-02  0.456E-02
  -0.789  0.141E-01  0.593E-02  0.406E-02  0.406E-02
  -0.779  0.114E-01  0.433E-02  0.354E-02  0.354E-02
  -0.769  0.898E-02  0.298E-02  0.300E-02  0.300E-02
  -0.759  0.674E-02  0.188E-02  0.243E-02  0.243E-02
  -0.749  0.471E-02  0.104E-02  0.184E-02  0.184E-02
  -0.739  0.288E-02  0.441E-03  0.122E-02  0.122E-02
  -0.729  0.126E-02  0.958E-04  0.580E-03  0.580E-03
  -0.719  0.000E+00  0.000E+00  0.000E+00  0.000E+00
  -0.709  0.000E+00  0.000E+00  0.000E+00  0.000E+00
  -0.699  0.000E+00  0.000E+00  0.000E+00  0.000E+00
  -0.689  0.000E+00  0.000E+00  0.000E+00  0.000E+00
  -0.679  0.000E+00  0.000E+00  0.000E+00  0.000E+00
  -0.669  0.000E+00  0.000E+00  0.000E+00  0.000E+00
  -0.659  0.000E+00  0.000E+00  0.000E+00  0.000E+00
  -0.649  0.000E+00  0.000E+00  0.000E+00  0.000E+00
  -0.639  0.000E+00  0.000E+00  0.000E+00  0.000E+00
  -0.629  0.000E+00  0.000E+00  0.000E+00  0.000E+00
  -0.619  0.205E-02  0.205E-02  0.352E-06  0.352E-06
  -0.609  0.122E-01  0.121E-01  0.130E-04  0.130E-04
  -0.599  0.218E-01  0.217E-01  0.438E-04  0.438E-04
  -0.589  0.310E-01  0.308E-01  0.945E-04  0.945E-04
  -0.579  0.397E-01  0.393E-01  0.182E-03  0.182E-03
  -0.569  0.481E-01  0.475E-01  0.313E-03  0.313E-03
  -0.559  0.561E-01  0.552E-01  0.488E-03  0.488E-03
  -0.549  0.638E-01  0.623E-01  0.708E-03  0.708E-03
  -0.539  0.710E-01  0.690E-01  0.972E-03  0.972E-03
  -0.529  0.777E-01  0.752E-01  0.128E-02  0.128E-02
  -0.519  0.841E-01  0.808E-01  0.163E-02  0.163E-02
  -0.509  0.900E-01  0.859E-01  0.203E-02  0.203E-02
  -0.499  0.955E-01  0.905E-01  0.248E-02  0.248E-02
  -0.489  0.101E+00  0.946E-01  0.296E-02  0.296E-02
  -0.479  0.105E+00  0.982E-01  0.349E-02  0.349E-02
  -0.469  0.109E+00  0.101E+00  0.407E-02  0.407E-02
  -0.459  0.113E+00  0.104E+00  0.469E-02  0.469E-02
  -0.449  0.117E+00  0.106E+00  0.536E-02  0.536E-02
  -0.439  0.120E+00  0.107E+00  0.607E-02  0.607E-02
  -0.429  0.122E+00  0.108E+00  0.682E-02  0.682E-02
  -0.419  0.317E+00  0.290E+00  0.138E-01  0.138E-01
  -0.409  0.296E+00  0.267E+00  0.142E-01  0.142E-01
  -0.399  0.281E+00  0.250E+00  0.153E-01  0.153E-01
  -0.389  0.266E+00  0.235E+00  0.154E-01  0.154E-01
  -0.379  0.254E+00  0.223E+00  0.155E-01  0.155E-01
  -0.369  0.244E+00  0.213E+00  0.155E-01  0.155E-01
  -0.359  0.270E+00  0.235E+00  0.177E-01  0.177E-01
  -0.349  0.394E+00  0.334E+00  0.301E-01  0.301E-01
  -0.339  0.545E+00  0.452E+00  0.465E-01  0.465E-01
  -0.329  0.720E+00  0.596E+00  0.622E-01  0.622E-01
  -0.319  0.459E+00  0.394E+00  0.321E-01  0.321E-01
  -0.309  0.452E+00  0.398E+00  0.274E-01  0.274E-01
  -0.299  0.458E+00  0.413E+00  0.227E-01  0.227E-01
  -0.289  0.236E+00  0.210E+00  0.127E-01  0.127E-01
  -0.279  0.637E-01  0.449E-01  0.942E-02  0.942E-02
  -0.269  0.677E-01  0.482E-01  0.977E-02  0.977E-02
  -0.259  0.243E+00  0.173E+00  0.351E-01  0.351E-01
  -0.249  0.214E+00  0.146E+00  0.342E-01  0.342E-01
  -0.239  0.184E+00  0.117E+00  0.335E-01  0.335E-01
  -0.229  0.256E+00  0.165E+00  0.456E-01  0.456E-01
  -0.219  0.990E-02  0.607E-02  0.191E-02  0.191E-02
  -0.209  0.103E-01  0.624E-02  0.202E-02  0.202E-02
  -0.199  0.107E-01  0.641E-02  0.213E-02  0.213E-02
  -0.189  0.111E-01  0.657E-02  0.225E-02  0.225E-02
  -0.179  0.115E-01  0.674E-02  0.237E-02  0.237E-02
  -0.169  0.119E-01  0.690E-02  0.249E-02  0.249E-02
  -0.159  0.123E-01  0.707E-02  0.261E-02  0.261E-02
  -0.149  0.127E-01  0.723E-02  0.273E-02  0.273E-02
  -0.139  0.131E-01  0.740E-02  0.286E-02  0.286E-02
  -0.129  0.136E-01  0.756E-02  0.300E-02  0.300E-02
  -0.119  0.140E-01  0.773E-02  0.313E-02  0.313E-02
  -0.109  0.261E-01  0.821E-02  0.896E-02  0.896E-02
  -0.099  0.430E-01  0.986E-02  0.166E-01  0.166E-01
  -0.089  0.941E+00  0.891E+00  0.249E-01  0.249E-01
  -0.079  0.266E+01  0.257E+01  0.432E-01  0.432E-01
  -0.069  0.439E+01  0.405E+01  0.166E+00  0.166E+00
  -0.059  0.108E+02  0.102E+02  0.277E+00  0.277E+00
  -0.049  0.157E+01  0.137E+01  0.984E-01  0.984E-01
  -0.039  0.157E+01  0.136E+01  0.107E+00  0.107E+00
  -0.029  0.130E+01  0.110E+01  0.102E+00  0.102E+00
  -0.019  0.165E+01  0.136E+01  0.145E+00  0.145E+00
  -0.009  0.165E+01  0.139E+01  0.129E+00  0.129E+00
   0.001  0.169E+01  0.148E+01  0.108E+00  0.108E+00
   0.011  0.166E+01  0.147E+01  0.967E-01  0.967E-01
   0.021  0.135E+01  0.117E+01  0.895E-01  0.895E-01
   0.031  0.769E+00  0.609E+00  0.803E-01  0.803E-01
   0.041  0.479E+00  0.318E+00  0.805E-01  0.805E-01
   0.051  0.415E+00  0.221E+00  0.970E-01  0.970E-01
   0.061  0.450E+00  0.142E+00  0.154E+00  0.154E+00
   0.071  0.410E+00  0.104E+00  0.153E+00  0.153E+00
   0.081  0.139E+00  0.816E-01  0.287E-01  0.287E-01
   0.091  0.890E-01  0.802E-01  0.441E-02  0.441E-02
   0.101  0.885E-01  0.793E-01  0.458E-02  0.458E-02
   0.111  0.879E-01  0.784E-01  0.475E-02  0.475E-02
   0.121  0.872E-01  0.774E-01  0.492E-02  0.492E-02
   0.131  0.866E-01  0.764E-01  0.510E-02  0.510E-02
   0.141  0.859E-01  0.753E-01  0.528E-02  0.528E-02
   0.151  0.851E-01  0.742E-01  0.546E-02  0.546E-02
   0.161  0.844E-01  0.731E-01  0.564E-02  0.564E-02
   0.171  0.836E-01  0.719E-01  0.583E-02  0.583E-02
   0.181  0.827E-01  0.707E-01  0.602E-02  0.602E-02
   0.191  0.819E-01  0.694E-01  0.621E-02  0.621E-02
   0.201  0.810E-01  0.681E-01  0.640E-02  0.640E-02
   0.211  0.800E-01  0.668E-01  0.660E-02  0.660E-02
   0.221  0.790E-01  0.654E-01  0.680E-02  0.680E-02
   0.231  0.780E-01  0.640E-01  0.701E-02  0.701E-02
   0.241  0.770E-01  0.626E-01  0.721E-02  0.721E-02
   0.251  0.759E-01  0.611E-01  0.742E-02  0.742E-02
   0.261  0.748E-01  0.595E-01  0.763E-02  0.763E-02
   0.271  0.736E-01  0.579E-01  0.785E-02  0.785E-02
   0.281  0.724E-01  0.563E-01  0.806E-02  0.806E-02
   0.291  0.712E-01  0.547E-01  0.828E-02  0.828E-02
   0.301  0.700E-01  0.530E-01  0.851E-02  0.851E-02
   0.311  0.687E-01  0.512E-01  0.873E-02  0.873E-02
   0.321  0.674E-01  0.494E-01  0.896E-02  0.896E-02
   0.331  0.660E-01  0.476E-01  0.919E-02  0.919E-02
   0.341  0.646E-01  0.458E-01  0.943E-02  0.943E-02
   0.351  0.632E-01  0.439E-01  0.966E-02  0.966E-02
   0.361  0.617E-01  0.419E-01  0.990E-02  0.990E-02
   0.371  0.602E-01  0.399E-01  0.101E-01  0.101E-01
   0.381  0.982E-01  0.380E-01  0.301E-01  0.301E-01
   0.391  0.253E+00  0.395E-01  0.107E+00  0.107E+00
   0.401  0.371E+00  0.460E-01  0.162E+00  0.162E+00
   0.411  0.146E+00  0.356E-01  0.554E-01  0.554E-01
   0.421  0.154E+00  0.336E-01  0.601E-01  0.601E-01
   0.431  0.161E+00  0.316E-01  0.645E-01  0.645E-01
   0.441  0.170E+00  0.323E-01  0.689E-01  0.689E-01
   0.451  0.179E+00  0.329E-01  0.732E-01  0.732E-01
   0.461  0.189E+00  0.333E-01  0.780E-01  0.780E-01
   0.471  0.266E+00  0.550E-01  0.106E+00  0.106E+00
   0.481  0.336E+00  0.726E-01  0.132E+00  0.132E+00
   0.491  0.381E+00  0.809E-01  0.150E+00  0.150E+00
   0.501  0.401E+00  0.798E-01  0.161E+00  0.161E+00
   0.511  0.398E+00  0.694E-01  0.164E+00  0.164E+00
   0.521  0.405E+00  0.654E-01  0.170E+00  0.170E+00
   0.531  0.440E+00  0.695E-01  0.185E+00  0.185E+00
   0.541  0.491E+00  0.795E-01  0.206E+00  0.206E+00
   0.551  0.459E+00  0.750E-01  0.192E+00  0.192E+00
   0.561  0.335E+00  0.570E-01  0.139E+00  0.139E+00
   0.571  0.239E+00  0.477E-01  0.958E-01  0.958E-01
   0.581  0.240E+00  0.520E-01  0.939E-01  0.939E-01
   0.591  0.240E+00  0.563E-01  0.918E-01  0.918E-01
   0.601  0.252E+00  0.653E-01  0.933E-01  0.933E-01
   0.611  0.259E+00  0.740E-01  0.926E-01  0.926E-01
   0.621  0.251E+00  0.755E-01  0.879E-01  0.879E-01
   0.631  0.231E+00  0.693E-01  0.807E-01  0.807E-01
   0.641  0.213E+00  0.696E-01  0.715E-01  0.715E-01
   0.651  0.207E+00  0.697E-01  0.685E-01  0.685E-01
   0.661  0.198E+00  0.674E-01  0.654E-01  0.654E-01
   0.671  0.191E+00  0.652E-01  0.628E-01  0.628E-01
   0.681  0.185E+00  0.631E-01  0.609E-01  0.609E-01
   0.691  0.180E+00  0.611E-01  0.596E-01  0.596E-01
   0.701  0.177E+00  0.592E-01  0.588E-01  0.588E-01
   0.711  0.175E+00  0.573E-01  0.589E-01  0.589E-01
   0.721  0.175E+00  0.556E-01  0.595E-01  0.595E-01
   0.731  0.176E+00  0.539E-01  0.609E-01  0.609E-01
   0.741  0.178E+00  0.524E-01  0.629E-01  0.629E-01
   0.751  0.246E+00  0.645E-01  0.908E-01  0.908E-01
   0.761  0.213E+00  0.561E-01  0.784E-01  0.784E-01
   0.771  0.188E+00  0.491E-01  0.694E-01  0.694E-01
   0.781  0.171E+00  0.435E-01  0.639E-01  0.639E-01
   0.791  0.162E+00  0.392E-01  0.614E-01  0.614E-01
   0.801  0.155E+00  0.364E-01  0.594E-01  0.594E-01
   0.811  0.157E+00  0.354E-01  0.608E-01  0.608E-01
   0.821  0.165E+00  0.352E-01  0.651E-01  0.651E-01
   0.831  0.240E+00  0.790E-01  0.806E-01  0.806E-01
   0.841  0.224E+00  0.556E-01  0.843E-01  0.843E-01
   0.851  0.214E+00  0.384E-01  0.876E-01  0.876E-01
   0.861  0.208E+00  0.274E-01  0.905E-01  0.905E-01
   0.871  0.255E+00  0.236E-01  0.116E+00  0.116E+00
   0.881  0.311E+00  0.334E-01  0.139E+00  0.139E+00
   0.891  0.325E+00  0.542E-01  0.135E+00  0.135E+00
   0.901  0.246E+00  0.365E-01  0.105E+00  0.105E+00
   0.911  0.316E+00  0.628E-01  0.127E+00  0.127E+00
   0.921  0.383E+00  0.818E-01  0.150E+00  0.150E+00
   0.931  0.428E+00  0.982E-01  0.165E+00  0.165E+00
   0.941  0.446E+00  0.110E+00  0.168E+00  0.168E+00
   0.951  0.462E+00  0.118E+00  0.172E+00  0.172E+00
   0.961  0.475E+00  0.121E+00  0.177E+00  0.177E+00
   0.971  0.306E+00  0.105E+00  0.100E+00  0.100E+00
   0.981  0.299E+00  0.113E+00  0.931E-01  0.931E-01
   0.991  0.228E+00  0.822E-01  0.729E-01  0.729E-01
   1.001  0.235E+00  0.930E-01  0.710E-01  0.710E-01
   1.011  0.236E+00  0.987E-01  0.687E-01  0.687E-01
   1.021  0.231E+00  0.993E-01  0.659E-01  0.659E-01
   1.031  0.531E+00  0.154E+00  0.188E+00  0.188E+00
   1.041  0.127E+00  0.500E-01  0.384E-01  0.384E-01
   1.051  0.227E+00  0.104E+00  0.615E-01  0.615E-01
   1.061  0.188E+00  0.846E-01  0.516E-01  0.516E-01
   1.071  0.157E+00  0.694E-01  0.438E-01  0.438E-01
   1.081  0.134E+00  0.581E-01  0.379E-01  0.379E-01
   1.091  0.119E+00  0.508E-01  0.340E-01  0.340E-01
   1.101  0.107E+00  0.455E-01  0.307E-01  0.307E-01
   1.111  0.175E+00  0.416E-01  0.667E-01  0.667E-01
   1.121  0.115E+00  0.389E-01  0.378E-01  0.378E-01
   1.131  0.116E+00  0.364E-01  0.398E-01  0.398E-01
   1.141  0.126E+00  0.426E-01  0.419E-01  0.419E-01
   1.151  0.138E+00  0.480E-01  0.452E-01  0.452E-01
   1.161  0.151E+00  0.516E-01  0.498E-01  0.498E-01
   1.171  0.172E+00  0.551E-01  0.586E-01  0.586E-01
   1.181  0.194E+00  0.594E-01  0.675E-01  0.675E-01
   1.191  0.210E+00  0.760E-01  0.670E-01  0.670E-01
   1.201  0.233E+00  0.929E-01  0.701E-01  0.701E-01
   1.211  0.273E+00  0.129E+00  0.724E-01  0.724E-01
   1.221  0.317E+00  0.170E+00  0.739E-01  0.739E-01
   1.231  0.366E+00  0.216E+00  0.747E-01  0.747E-01
   1.241  0.359E+00  0.219E+00  0.701E-01  0.701E-01
   1.251  0.384E+00  0.248E+00  0.681E-01  0.681E-01
   1.261  0.450E+00  0.307E+00  0.714E-01  0.714E-01
   1.271  0.568E+00  0.407E+00  0.804E-01  0.804E-01
   1.281  0.668E+00  0.511E+00  0.786E-01  0.786E-01
   1.291  0.372E+00  0.279E+00  0.463E-01  0.463E-01
   1.301  0.372E+00  0.268E+00  0.521E-01  0.521E-01
   1.311  0.297E+00  0.182E+00  0.573E-01  0.573E-01
   1.321  0.257E+00  0.132E+00  0.622E-01  0.622E-01
   1.331  0.197E+00  0.896E-01  0.538E-01  0.538E-01
   1.341  0.188E+00  0.799E-01  0.542E-01  0.542E-01
   1.351  0.239E+00  0.733E-01  0.830E-01  0.830E-01
   1.361  0.393E+00  0.157E+00  0.118E+00  0.118E+00
   1.371  0.354E+00  0.134E+00  0.110E+00  0.110E+00
   1.381  0.306E+00  0.111E+00  0.975E-01  0.975E-01
   1.391  0.276E+00  0.974E-01  0.893E-01  0.893E-01
   1.401  0.252E+00  0.862E-01  0.828E-01  0.828E-01
   1.411  0.227E+00  0.768E-01  0.752E-01  0.752E-01
   1.421  0.206E+00  0.728E-01  0.664E-01  0.664E-01
   1.431  0.298E+00  0.123E+00  0.875E-01  0.875E-01
   1.441  0.247E+00  0.119E+00  0.641E-01  0.641E-01
   1.451  0.197E+00  0.106E+00  0.453E-01  0.453E-01
   1.461  0.147E+00  0.843E-01  0.313E-01  0.313E-01
   1.471  0.107E+00  0.537E-01  0.266E-01  0.266E-01
   1.481  0.985E-01  0.471E-01  0.257E-01  0.257E-01
   1.491  0.101E+00  0.512E-01  0.248E-01  0.248E-01
   1.501  0.250E+00  0.569E-01  0.967E-01  0.967E-01
   1.511  0.561E+00  0.783E-01  0.242E+00  0.242E+00
   1.521  0.607E+00  0.119E+00  0.244E+00  0.244E+00
   1.531  0.386E+00  0.179E+00  0.104E+00  0.104E+00
   1.541  0.224E+00  0.119E+00  0.524E-01  0.524E-01
   1.551  0.241E+00  0.146E+00  0.477E-01  0.477E-01
   1.561  0.614E+00  0.496E+00  0.588E-01  0.588E-01
   1.571  0.469E+00  0.369E+00  0.503E-01  0.503E-01
   1.581  0.436E+00  0.340E+00  0.476E-01  0.476E-01
   1.591  0.486E+00  0.388E+00  0.494E-01  0.494E-01
   1.601  0.547E+00  0.440E+00  0.535E-01  0.535E-01
   1.611  0.610E+00  0.490E+00  0.601E-01  0.601E-01
   1.621  0.494E+00  0.375E+00  0.600E-01  0.600E-01
   1.631  0.514E+00  0.374E+00  0.700E-01  0.700E-01
   1.641  0.534E+00  0.369E+00  0.826E-01  0.826E-01
   1.651  0.555E+00  0.360E+00  0.976E-01  0.976E-01
   1.661  0.581E+00  0.351E+00  0.115E+00  0.115E+00
   1.671  0.599E+00  0.337E+00  0.131E+00  0.131E+00
   1.681  0.610E+00  0.320E+00  0.145E+00  0.145E+00
   1.691  0.616E+00  0.299E+00  0.159E+00  0.159E+00
   1.701  0.605E+00  0.275E+00  0.165E+00  0.165E+00
   1.711  0.586E+00  0.248E+00  0.169E+00  0.169E+00
   1.721  0.565E+00  0.219E+00  0.173E+00  0.173E+00
   1.731  0.328E+00  0.130E+00  0.990E-01  0.990E-01
   1.741  0.285E+00  0.114E+00  0.855E-01  0.855E-01
   1.751  0.246E+00  0.994E-01  0.732E-01  0.732E-01
   1.761  0.210E+00  0.864E-01  0.619E-01  0.619E-01
   1.771  0.178E+00  0.750E-01  0.517E-01  0.517E-01
   1.781  0.269E+00  0.177E+00  0.460E-01  0.460E-01
   1.791  0.199E+00  0.126E+00  0.368E-01  0.368E-01
   1.801  0.142E+00  0.846E-01  0.288E-01  0.288E-01
   1.811  0.974E-01  0.533E-01  0.220E-01  0.220E-01
   1.821  0.647E-01  0.321E-01  0.163E-01  0.163E-01
   1.831  0.443E-01  0.207E-01  0.118E-01  0.118E-01
   1.841  0.322E-01  0.156E-01  0.828E-02  0.828E-02
   1.851  0.230E-01  0.116E-01  0.567E-02  0.567E-02
   1.861  0.167E-01  0.872E-02  0.397E-02  0.397E-02
   1.871  0.120E-01  0.638E-02  0.281E-02  0.281E-02
   1.881  0.804E-02  0.436E-02  0.184E-02  0.184E-02
   1.891  0.476E-02  0.265E-02  0.106E-02  0.106E-02
   1.901  0.218E-02  0.125E-02  0.462E-03  0.462E-03
   1.911  0.280E-03  0.169E-03  0.555E-04  0.555E-04
   1.921  0.000E+00  0.000E+00  0.000E+00  0.000E+00
