# E (eV)   ldos(E)   pdos(E)   
 -15.919  0.000E+00  0.000E+00
 -15.909  0.929E-03  0.929E-03
 -15.899  0.181E-02  0.181E-02
 -15.889  0.130E-02  0.130E-02
 -15.879  0.134E-02  0.134E-02
 -15.869  0.138E-02  0.138E-02
 -15.859  0.142E-02  0.142E-02
 -15.849  0.145E-02  0.145E-02
 -15.839  0.148E-02  0.148E-02
 -15.829  0.147E-02  0.147E-02
 -15.819  0.137E-02  0.137E-02
 -15.809  0.126E-02  0.126E-02
 -15.799  0.120E-02  0.120E-02
 -15.789  0.120E-02  0.120E-02
 -15.779  0.120E-02  0.120E-02
 -15.769  0.120E-02  0.120E-02
 -15.759  0.120E-02  0.120E-02
 -15.749  0.120E-02  0.120E-02
 -15.739  0.119E-02  0.119E-02
 -15.729  0.119E-02  0.119E-02
 -15.719  0.118E-02  0.118E-02
 -15.709  0.229E-02  0.229E-02
 -15.699  0.175E-02  0.175E-02
 -15.689  0.125E-02  0.125E-02
 -15.679  0.786E-03  0.786E-03
 -15.669  0.403E-03  0.403E-03
 -15.659  0.329E-03  0.329E-03
 -15.649  0.261E-03  0.261E-03
 -15.639  0.240E-03  0.240E-03
 -15.629  0.280E-03  0.280E-03
 -15.619  0.322E-03  0.322E-03
 -15.609  0.365E-03  0.365E-03
 -15.599  0.409E-03  0.409E-03
 -15.589  0.472E-03  0.472E-03
 -15.579  0.544E-03  0.544E-03
 -15.569  0.612E-03  0.612E-03
 -15.559  0.179E-02  0.179E-02
 -15.549  0.376E-02  0.376E-02
 -15.539  0.590E-03  0.590E-03
 -15.529  0.572E-03  0.572E-03
 -15.519  0.555E-03  0.555E-03
 -15.509  0.541E-03  0.541E-03
 -15.499  0.529E-03  0.529E-03
 -15.489  0.519E-03  0.519E-03
 -15.479  0.511E-03  0.511E-03
 -15.469  0.505E-03  0.505E-03
 -15.459  0.501E-03  0.501E-03
 -15.449  0.500E-03  0.500E-03
 -15.439  0.501E-03  0.501E-03
 -15.429  0.504E-03  0.504E-03
 -15.419  0.508E-03  0.508E-03
 -15.409  0.513E-03  0.513E-03
 -15.399  0.521E-03  0.521E-03
 -15.389  0.529E-03  0.529E-03
 -15.379  0.539E-03  0.539E-03
 -15.369  0.551E-03  0.551E-03
 -15.359  0.739E-03  0.739E-03
 -15.349  0.696E-03  0.696E-03
 -15.339  0.655E-03  0.655E-03
 -15.329  0.615E-03  0.615E-03
 -15.319  0.582E-03  0.582E-03
 -15.309  0.553E-03  0.553E-03
 -15.299  0.526E-03  0.526E-03
 -15.289  0.523E-03  0.523E-03
 -15.279  0.522E-03  0.522E-03
 -15.269  0.521E-03  0.521E-03
 -15.259  0.519E-03  0.519E-03
 -15.249  0.517E-03  0.517E-03
 -15.239  0.516E-03  0.516E-03
 -15.229  0.514E-03  0.514E-03
 -15.219  0.512E-03  0.512E-03
 -15.209  0.509E-03  0.509E-03
 -15.199  0.412E-03  0.412E-03
 -15.189  0.409E-03  0.409E-03
 -15.179  0.405E-03  0.405E-03
 -15.169  0.402E-03  0.402E-03
 -15.159  0.398E-03  0.398E-03
 -15.149  0.395E-03  0.395E-03
 -15.139  0.371E-03  0.371E-03
 -15.129  0.361E-03  0.361E-03
 -15.119  0.353E-03  0.353E-03
 -15.109  0.358E-03  0.358E-03
 -15.099  0.352E-03  0.352E-03
 -15.089  0.347E-03  0.347E-03
 -15.079  0.341E-03  0.341E-03
 -15.069  0.335E-03  0.335E-03
 -15.059  0.329E-03  0.329E-03
 -15.049  0.322E-03  0.322E-03
 -15.039  0.315E-03  0.315E-03
 -15.029  0.379E-03  0.379E-03
 -15.019  0.553E-03  0.553E-03
 -15.009  0.523E-03  0.523E-03
 -14.999  0.493E-03  0.493E-03
 -14.989  0.462E-03  0.462E-03
 -14.979  0.430E-03  0.430E-03
 -14.969  0.397E-03  0.397E-03
 -14.959  0.364E-03  0.364E-03
 -14.949  0.329E-03  0.329E-03
 -14.939  0.294E-03  0.294E-03
 -14.929  0.259E-03  0.259E-03
 -14.919  0.222E-03  0.222E-03
 -14.909  0.185E-03  0.185E-03
 -14.899  0.164E-03  0.164E-03
 -14.889  0.155E-03  0.155E-03
 -14.879  0.147E-03  0.147E-03
 -14.869  0.143E-03  0.143E-03
 -14.859  0.380E-03  0.380E-03
 -14.849  0.301E-03  0.301E-03
 -14.839  0.234E-03  0.234E-03
 -14.829  0.178E-03  0.178E-03
 -14.819  0.134E-03  0.134E-03
 -14.809  0.102E-03  0.102E-03
 -14.799  0.124E-03  0.124E-03
 -14.789  0.156E-03  0.156E-03
 -14.779  0.186E-03  0.186E-03
 -14.769  0.215E-03  0.215E-03
 -14.759  0.242E-03  0.242E-03
 -14.749  0.268E-03  0.268E-03
 -14.739  0.292E-03  0.292E-03
 -14.729  0.314E-03  0.314E-03
 -14.719  0.334E-03  0.334E-03
 -14.709  0.353E-03  0.353E-03
 -14.699  0.224E-03  0.224E-03
 -14.689  0.193E-03  0.193E-03
 -14.679  0.192E-03  0.192E-03
 -14.669  0.191E-03  0.191E-03
 -14.659  0.190E-03  0.190E-03
 -14.649  0.189E-03  0.189E-03
 -14.639  0.188E-03  0.188E-03
 -14.629  0.186E-03  0.186E-03
 -14.619  0.185E-03  0.185E-03
 -14.609  0.183E-03  0.183E-03
 -14.599  0.182E-03  0.182E-03
 -14.589  0.180E-03  0.180E-03
 -14.579  0.179E-03  0.179E-03
 -14.569  0.177E-03  0.177E-03
 -14.559  0.225E-03  0.225E-03
 -14.549  0.429E-03  0.429E-03
 -14.539  0.706E-03  0.706E-03
 -14.529  0.180E-03  0.180E-03
 -14.519  0.178E-03  0.178E-03
 -14.509  0.176E-03  0.176E-03
 -14.499  0.174E-03  0.174E-03
 -14.489  0.171E-03  0.171E-03
 -14.479  0.169E-03  0.169E-03
 -14.469  0.167E-03  0.167E-03
 -14.459  0.165E-03  0.165E-03
 -14.449  0.166E-03  0.166E-03
 -14.439  0.167E-03  0.167E-03
 -14.429  0.167E-03  0.167E-03
 -14.419  0.168E-03  0.168E-03
 -14.409  0.169E-03  0.169E-03
 -14.399  0.170E-03  0.170E-03
 -14.389  0.171E-03  0.171E-03
 -14.379  0.172E-03  0.172E-03
 -14.369  0.172E-03  0.172E-03
 -14.359  0.173E-03  0.173E-03
 -14.349  0.174E-03  0.174E-03
 -14.339  0.175E-03  0.175E-03
 -14.329  0.174E-03  0.174E-03
 -14.319  0.173E-03  0.173E-03
 -14.309  0.173E-03  0.173E-03
 -14.299  0.173E-03  0.173E-03
 -14.289  0.174E-03  0.174E-03
 -14.279  0.174E-03  0.174E-03
 -14.269  0.175E-03  0.175E-03
 -14.259  0.175E-03  0.175E-03
 -14.249  0.176E-03  0.176E-03
 -14.239  0.176E-03  0.176E-03
 -14.229  0.176E-03  0.176E-03
 -14.219  0.209E-03  0.209E-03
 -14.209  0.190E-03  0.190E-03
 -14.199  0.165E-03  0.165E-03
 -14.189  0.133E-03  0.133E-03
 -14.179  0.940E-04  0.940E-04
 -14.169  0.510E-04  0.510E-04
 -14.159  0.940E-04  0.940E-04
 -14.149  0.146E-03  0.146E-03
 -14.139  0.152E-03  0.152E-03
 -14.129  0.144E-03  0.144E-03
 -14.119  0.136E-03  0.136E-03
 -14.109  0.127E-03  0.127E-03
 -14.099  0.118E-03  0.118E-03
 -14.089  0.109E-03  0.109E-03
 -14.079  0.100E-03  0.100E-03
 -14.069  0.495E-04  0.495E-04
 -14.059  0.510E-04  0.510E-04
 -14.049  0.524E-04  0.524E-04
 -14.039  0.537E-04  0.537E-04
 -14.029  0.549E-04  0.549E-04
 -14.019  0.560E-04  0.560E-04
 -14.009  0.569E-04  0.569E-04
 -13.999  0.577E-04  0.577E-04
 -13.989  0.584E-04  0.584E-04
 -13.979  0.590E-04  0.590E-04
 -13.969  0.595E-04  0.595E-04
 -13.959  0.598E-04  0.598E-04
 -13.949  0.600E-04  0.600E-04
 -13.939  0.601E-04  0.601E-04
 -13.929  0.601E-04  0.601E-04
 -13.919  0.139E-03  0.139E-03
 -13.909  0.137E-03  0.137E-03
 -13.899  0.136E-03  0.136E-03
 -13.889  0.135E-03  0.135E-03
 -13.879  0.134E-03  0.134E-03
 -13.869  0.133E-03  0.133E-03
 -13.859  0.106E-03  0.106E-03
 -13.849  0.679E-04  0.679E-04
 -13.839  0.509E-04  0.509E-04
 -13.829  0.630E-04  0.630E-04
 -13.819  0.754E-04  0.754E-04
 -13.809  0.879E-04  0.879E-04
 -13.799  0.101E-03  0.101E-03
 -13.789  0.114E-03  0.114E-03
 -13.779  0.127E-03  0.127E-03
 -13.769  0.292E-03  0.292E-03
 -13.759  0.155E-03  0.155E-03
 -13.749  0.102E-03  0.102E-03
 -13.739  0.923E-04  0.923E-04
 -13.729  0.825E-04  0.825E-04
 -13.719  0.728E-04  0.728E-04
 -13.709  0.643E-04  0.643E-04
 -13.699  0.560E-04  0.560E-04
 -13.689  0.484E-04  0.484E-04
 -13.679  0.414E-04  0.414E-04
 -13.669  0.412E-04  0.412E-04
 -13.659  0.412E-04  0.412E-04
 -13.649  0.412E-04  0.412E-04
 -13.639  0.417E-04  0.417E-04
 -13.629  0.429E-04  0.429E-04
 -13.619  0.448E-04  0.448E-04
 -13.609  0.472E-04  0.472E-04
 -13.599  0.498E-04  0.498E-04
 -13.589  0.528E-04  0.528E-04
 -13.579  0.561E-04  0.561E-04
 -13.569  0.597E-04  0.597E-04
 -13.559  0.637E-04  0.637E-04
 -13.549  0.680E-04  0.680E-04
 -13.539  0.727E-04  0.727E-04
 -13.529  0.776E-04  0.776E-04
 -13.519  0.829E-04  0.829E-04
 -13.509  0.684E-04  0.684E-04
 -13.499  0.676E-04  0.676E-04
 -13.489  0.677E-04  0.677E-04
 -13.479  0.121E-03  0.121E-03
 -13.469  0.629E-04  0.629E-04
 -13.459  0.586E-04  0.586E-04
 -13.449  0.577E-04  0.577E-04
 -13.439  0.567E-04  0.567E-04
 -13.429  0.556E-04  0.556E-04
 -13.419  0.539E-04  0.539E-04
 -13.409  0.523E-04  0.523E-04
 -13.399  0.507E-04  0.507E-04
 -13.389  0.492E-04  0.492E-04
 -13.379  0.478E-04  0.478E-04
 -13.369  0.462E-04  0.462E-04
 -13.359  0.446E-04  0.446E-04
 -13.349  0.430E-04  0.430E-04
 -13.339  0.415E-04  0.415E-04
 -13.329  0.410E-04  0.410E-04
 -13.319  0.404E-04  0.404E-04
 -13.309  0.399E-04  0.399E-04
 -13.299  0.393E-04  0.393E-04
 -13.289  0.388E-04  0.388E-04
 -13.279  0.382E-04  0.382E-04
 -13.269  0.474E-04  0.474E-04
 -13.259  0.472E-04  0.472E-04
 -13.249  0.470E-04  0.470E-04
 -13.239  0.468E-04  0.468E-04
 -13.229  0.465E-04  0.465E-04
 -13.219  0.463E-04  0.463E-04
 -13.209  0.460E-04  0.460E-04
 -13.199  0.457E-04  0.457E-04
 -13.189  0.454E-04  0.454E-04
 -13.179  0.451E-04  0.451E-04
 -13.169  0.448E-04  0.448E-04
 -13.159  0.445E-04  0.445E-04
 -13.149  0.441E-04  0.441E-04
 -13.139  0.623E-04  0.623E-04
 -13.129  0.773E-04  0.773E-04
 -13.119  0.890E-04  0.890E-04
 -13.109  0.690E-04  0.690E-04
 -13.099  0.604E-04  0.604E-04
 -13.089  0.494E-04  0.494E-04
 -13.079  0.364E-04  0.364E-04
 -13.069  0.339E-04  0.339E-04
 -13.059  0.292E-04  0.292E-04
 -13.049  0.248E-04  0.248E-04
 -13.039  0.226E-04  0.226E-04
 -13.029  0.219E-04  0.219E-04
 -13.019  0.712E-07  0.712E-07
 -13.009  0.196E-06  0.196E-06
 -12.999  0.752E-06  0.752E-06
 -12.989  0.213E-05  0.213E-05
 -12.979  0.652E-05  0.652E-05
 -12.969  0.109E-04  0.109E-04
 -12.959  0.152E-04  0.152E-04
 -12.949  0.204E-04  0.204E-04
 -12.939  0.261E-04  0.261E-04
 -12.929  0.317E-04  0.317E-04
 -12.919  0.371E-04  0.371E-04
 -12.909  0.429E-04  0.429E-04
 -12.899  0.739E-04  0.739E-04
 -12.889  0.509E-04  0.509E-04
 -12.879  0.495E-04  0.495E-04
 -12.869  0.476E-04  0.476E-04
 -12.859  0.453E-04  0.453E-04
 -12.849  0.426E-04  0.426E-04
 -12.839  0.400E-04  0.400E-04
 -12.829  0.408E-04  0.408E-04
 -12.819  0.415E-04  0.415E-04
 -12.809  0.422E-04  0.422E-04
 -12.799  0.347E-04  0.347E-04
 -12.789  0.321E-04  0.321E-04
 -12.779  0.598E-04  0.598E-04
 -12.769  0.586E-04  0.586E-04
 -12.759  0.250E-04  0.250E-04
 -12.749  0.227E-04  0.227E-04
 -12.739  0.206E-04  0.206E-04
 -12.729  0.188E-04  0.188E-04
 -12.719  0.171E-04  0.171E-04
 -12.709  0.157E-04  0.157E-04
 -12.699  0.144E-04  0.144E-04
 -12.689  0.134E-04  0.134E-04
 -12.679  0.128E-04  0.128E-04
 -12.669  0.123E-04  0.123E-04
 -12.659  0.119E-04  0.119E-04
 -12.649  0.115E-04  0.115E-04
 -12.639  0.114E-04  0.114E-04
 -12.629  0.156E-04  0.156E-04
 -12.619  0.195E-04  0.195E-04
 -12.609  0.224E-04  0.224E-04
 -12.599  0.241E-04  0.241E-04
 -12.589  0.249E-04  0.249E-04
 -12.579  0.245E-04  0.245E-04
 -12.569  0.104E-04  0.104E-04
 -12.559  0.101E-04  0.101E-04
 -12.549  0.990E-05  0.990E-05
 -12.539  0.966E-05  0.966E-05
 -12.529  0.938E-05  0.938E-05
 -12.519  0.925E-05  0.925E-05
 -12.509  0.877E-05  0.877E-05
 -12.499  0.796E-05  0.796E-05
 -12.489  0.719E-05  0.719E-05
 -12.479  0.646E-05  0.646E-05
 -12.469  0.579E-05  0.579E-05
 -12.459  0.517E-05  0.517E-05
 -12.449  0.459E-05  0.459E-05
 -12.439  0.406E-05  0.406E-05
 -12.429  0.367E-05  0.367E-05
 -12.419  0.347E-05  0.347E-05
 -12.409  0.325E-05  0.325E-05
 -12.399  0.302E-05  0.302E-05
 -12.389  0.278E-05  0.278E-05
 -12.379  0.254E-05  0.254E-05
 -12.369  0.228E-05  0.228E-05
 -12.359  0.202E-05  0.202E-05
 -12.349  0.251E-05  0.251E-05
 -12.339  0.179E-05  0.179E-05
 -12.329  0.118E-05  0.118E-05
 -12.319  0.695E-06  0.695E-06
 -12.309  0.323E-06  0.323E-06
 -12.299  0.677E-07  0.677E-07
 -12.289  0.000E+00  0.000E+00
 -12.279  0.000E+00  0.000E+00
 -12.269  0.000E+00  0.000E+00
 -12.259  0.000E+00  0.000E+00
 -12.249  0.000E+00  0.000E+00
 -12.239  0.000E+00  0.000E+00
 -12.229  0.000E+00  0.000E+00
 -12.219  0.000E+00  0.000E+00
 -12.209  0.000E+00  0.000E+00
 -12.199  0.000E+00  0.000E+00
 -12.189  0.000E+00  0.000E+00
 -12.179  0.000E+00  0.000E+00
 -12.169  0.000E+00  0.000E+00
 -12.159  0.000E+00  0.000E+00
 -12.149  0.000E+00  0.000E+00
 -12.139  0.000E+00  0.000E+00
 -12.129  0.000E+00  0.000E+00
 -12.119  0.000E+00  0.000E+00
 -12.109  0.000E+00  0.000E+00
 -12.099  0.000E+00  0.000E+00
 -12.089  0.000E+00  0.000E+00
 -12.079  0.000E+00  0.000E+00
 -12.069  0.000E+00  0.000E+00
 -12.059  0.000E+00  0.000E+00
 -12.049  0.000E+00  0.000E+00
 -12.039  0.000E+00  0.000E+00
 -12.029  0.000E+00  0.000E+00
 -12.019  0.000E+00  0.000E+00
 -12.009  0.000E+00  0.000E+00
 -11.999  0.786E-01  0.786E-01
 -11.989  0.237E+00  0.237E+00
 -11.979  0.394E+00  0.394E+00
 -11.969  0.256E+00  0.256E+00
 -11.959  0.268E+00  0.268E+00
 -11.949  0.280E+00  0.280E+00
 -11.939  0.291E+00  0.291E+00
 -11.929  0.303E+00  0.303E+00
 -11.919  0.315E+00  0.315E+00
 -11.909  0.326E+00  0.326E+00
 -11.899  0.319E+00  0.319E+00
 -11.889  0.303E+00  0.303E+00
 -11.879  0.287E+00  0.287E+00
 -11.869  0.280E+00  0.280E+00
 -11.859  0.285E+00  0.285E+00
 -11.849  0.290E+00  0.290E+00
 -11.839  0.295E+00  0.295E+00
 -11.829  0.300E+00  0.300E+00
 -11.819  0.305E+00  0.305E+00
 -11.809  0.310E+00  0.310E+00
 -11.799  0.315E+00  0.315E+00
 -11.789  0.320E+00  0.320E+00
 -11.779  0.325E+00  0.325E+00
 -11.769  0.633E+00  0.633E+00
 -11.759  0.524E+00  0.524E+00
 -11.749  0.416E+00  0.416E+00
 -11.739  0.308E+00  0.308E+00
 -11.729  0.201E+00  0.201E+00
 -11.719  0.108E+00  0.108E+00
 -11.709  0.926E-01  0.926E-01
 -11.699  0.801E-01  0.801E-01
 -11.689  0.878E-01  0.878E-01
 -11.679  0.965E-01  0.965E-01
 -11.669  0.106E+00  0.106E+00
 -11.659  0.117E+00  0.117E+00
 -11.649  0.128E+00  0.128E+00
 -11.639  0.141E+00  0.141E+00
 -11.629  0.156E+00  0.156E+00
 -11.619  0.178E+00  0.178E+00
 -11.609  0.458E+00  0.458E+00
 -11.599  0.893E+00  0.893E+00
 -11.589  0.113E+01  0.113E+01
 -11.579  0.201E+00  0.201E+00
 -11.569  0.200E+00  0.200E+00
 -11.559  0.199E+00  0.199E+00
 -11.549  0.199E+00  0.199E+00
 -11.539  0.200E+00  0.200E+00
 -11.529  0.200E+00  0.200E+00
 -11.519  0.202E+00  0.202E+00
 -11.509  0.203E+00  0.203E+00
 -11.499  0.206E+00  0.206E+00
 -11.489  0.208E+00  0.208E+00
 -11.479  0.212E+00  0.212E+00
 -11.469  0.216E+00  0.216E+00
 -11.459  0.221E+00  0.221E+00
 -11.449  0.226E+00  0.226E+00
 -11.439  0.231E+00  0.231E+00
 -11.429  0.237E+00  0.237E+00
 -11.419  0.243E+00  0.243E+00
 -11.409  0.249E+00  0.249E+00
 -11.399  0.256E+00  0.256E+00
 -11.389  0.263E+00  0.263E+00
 -11.379  0.358E+00  0.358E+00
 -11.369  0.340E+00  0.340E+00
 -11.359  0.323E+00  0.323E+00
 -11.349  0.307E+00  0.307E+00
 -11.339  0.291E+00  0.291E+00
 -11.329  0.280E+00  0.280E+00
 -11.319  0.271E+00  0.271E+00
 -11.309  0.272E+00  0.272E+00
 -11.299  0.275E+00  0.275E+00
 -11.289  0.277E+00  0.277E+00
 -11.279  0.280E+00  0.280E+00
 -11.269  0.283E+00  0.283E+00
 -11.259  0.286E+00  0.286E+00
 -11.249  0.289E+00  0.289E+00
 -11.239  0.291E+00  0.291E+00
 -11.229  0.294E+00  0.294E+00
 -11.219  0.296E+00  0.296E+00
 -11.209  0.299E+00  0.299E+00
 -11.199  0.240E+00  0.240E+00
 -11.189  0.242E+00  0.242E+00
 -11.179  0.243E+00  0.243E+00
 -11.169  0.245E+00  0.245E+00
 -11.159  0.247E+00  0.247E+00
 -11.149  0.249E+00  0.249E+00
 -11.139  0.248E+00  0.248E+00
 -11.129  0.239E+00  0.239E+00
 -11.119  0.237E+00  0.237E+00
 -11.109  0.237E+00  0.237E+00
 -11.099  0.241E+00  0.241E+00
 -11.089  0.241E+00  0.241E+00
 -11.079  0.240E+00  0.240E+00
 -11.069  0.240E+00  0.240E+00
 -11.059  0.239E+00  0.239E+00
 -11.049  0.238E+00  0.238E+00
 -11.039  0.236E+00  0.236E+00
 -11.029  0.235E+00  0.235E+00
 -11.019  0.287E+00  0.287E+00
 -11.009  0.422E+00  0.422E+00
 -10.999  0.407E+00  0.407E+00
 -10.989  0.391E+00  0.391E+00
 -10.979  0.373E+00  0.373E+00
 -10.969  0.355E+00  0.355E+00
 -10.959  0.335E+00  0.335E+00
 -10.949  0.314E+00  0.314E+00
 -10.939  0.291E+00  0.291E+00
 -10.929  0.268E+00  0.268E+00
 -10.919  0.243E+00  0.243E+00
 -10.909  0.217E+00  0.217E+00
 -10.899  0.189E+00  0.189E+00
 -10.889  0.162E+00  0.162E+00
 -10.879  0.142E+00  0.142E+00
 -10.869  0.138E+00  0.138E+00
 -10.859  0.135E+00  0.135E+00
 -10.849  0.133E+00  0.133E+00
 -10.839  0.134E+00  0.134E+00
 -10.829  0.382E+00  0.382E+00
 -10.819  0.301E+00  0.301E+00
 -10.809  0.233E+00  0.233E+00
 -10.799  0.176E+00  0.176E+00
 -10.789  0.132E+00  0.132E+00
 -10.779  0.106E+00  0.106E+00
 -10.769  0.137E+00  0.137E+00
 -10.759  0.176E+00  0.176E+00
 -10.749  0.212E+00  0.212E+00
 -10.739  0.248E+00  0.248E+00
 -10.729  0.282E+00  0.282E+00
 -10.719  0.315E+00  0.315E+00
 -10.709  0.346E+00  0.346E+00
 -10.699  0.376E+00  0.376E+00
 -10.689  0.404E+00  0.404E+00
 -10.679  0.432E+00  0.432E+00
 -10.669  0.231E+00  0.231E+00
 -10.659  0.232E+00  0.232E+00
 -10.649  0.234E+00  0.234E+00
 -10.639  0.236E+00  0.236E+00
 -10.629  0.237E+00  0.237E+00
 -10.619  0.239E+00  0.239E+00
 -10.609  0.241E+00  0.241E+00
 -10.599  0.243E+00  0.243E+00
 -10.589  0.244E+00  0.244E+00
 -10.579  0.246E+00  0.246E+00
 -10.569  0.248E+00  0.248E+00
 -10.559  0.249E+00  0.249E+00
 -10.549  0.251E+00  0.251E+00
 -10.539  0.253E+00  0.253E+00
 -10.529  0.255E+00  0.255E+00
 -10.519  0.256E+00  0.256E+00
 -10.509  0.286E+00  0.286E+00
 -10.499  0.644E+00  0.644E+00
 -10.489  0.117E+01  0.117E+01
 -10.479  0.284E+00  0.284E+00
 -10.469  0.287E+00  0.287E+00
 -10.459  0.289E+00  0.289E+00
 -10.449  0.292E+00  0.292E+00
 -10.439  0.296E+00  0.296E+00
 -10.429  0.300E+00  0.300E+00
 -10.419  0.304E+00  0.304E+00
 -10.409  0.311E+00  0.311E+00
 -10.399  0.318E+00  0.318E+00
 -10.389  0.325E+00  0.325E+00
 -10.379  0.331E+00  0.331E+00
 -10.369  0.338E+00  0.338E+00
 -10.359  0.344E+00  0.344E+00
 -10.349  0.350E+00  0.350E+00
 -10.339  0.356E+00  0.356E+00
 -10.329  0.362E+00  0.362E+00
 -10.319  0.365E+00  0.365E+00
 -10.309  0.368E+00  0.368E+00
 -10.299  0.373E+00  0.373E+00
 -10.289  0.378E+00  0.378E+00
 -10.279  0.383E+00  0.383E+00
 -10.269  0.389E+00  0.389E+00
 -10.259  0.395E+00  0.395E+00
 -10.249  0.401E+00  0.401E+00
 -10.239  0.406E+00  0.406E+00
 -10.229  0.412E+00  0.412E+00
 -10.219  0.419E+00  0.419E+00
 -10.209  0.425E+00  0.425E+00
 -10.199  0.431E+00  0.431E+00
 -10.189  0.438E+00  0.438E+00
 -10.179  0.464E+00  0.464E+00
 -10.169  0.486E+00  0.486E+00
 -10.159  0.505E+00  0.505E+00
 -10.149  0.521E+00  0.521E+00
 -10.139  0.760E+00  0.760E+00
 -10.129  0.249E+00  0.249E+00
 -10.119  0.259E+00  0.259E+00
 -10.109  0.303E+00  0.303E+00
 -10.099  0.397E+00  0.397E+00
 -10.089  0.529E+00  0.529E+00
 -10.079  0.275E+00  0.275E+00
 -10.069  0.308E+00  0.308E+00
 -10.059  0.342E+00  0.342E+00
 -10.049  0.423E+00  0.423E+00
 -10.039  0.397E+00  0.397E+00
 -10.029  0.375E+00  0.375E+00
 -10.019  0.354E+00  0.354E+00
 -10.009  0.331E+00  0.331E+00
  -9.999  0.308E+00  0.308E+00
  -9.989  0.283E+00  0.283E+00
  -9.979  0.258E+00  0.258E+00
  -9.969  0.232E+00  0.232E+00
  -9.959  0.205E+00  0.205E+00
  -9.949  0.177E+00  0.177E+00
  -9.939  0.156E+00  0.156E+00
  -9.929  0.153E+00  0.153E+00
  -9.919  0.160E+00  0.160E+00
  -9.909  0.182E+00  0.182E+00
  -9.899  0.210E+00  0.210E+00
  -9.889  0.255E+00  0.255E+00
  -9.879  0.312E+00  0.312E+00
  -9.869  0.391E+00  0.391E+00
  -9.859  0.472E+00  0.472E+00
  -9.849  0.554E+00  0.554E+00
  -9.839  0.467E+00  0.467E+00
  -9.829  0.503E+00  0.503E+00
  -9.819  0.534E+00  0.534E+00
  -9.809  0.559E+00  0.559E+00
  -9.799  0.579E+00  0.579E+00
  -9.789  0.495E+00  0.495E+00
  -9.779  0.474E-01  0.474E-01
  -9.769  0.630E-02  0.630E-02
  -9.759  0.112E-01  0.112E-01
  -9.749  0.167E-01  0.167E-01
  -9.739  0.334E-01  0.334E-01
  -9.729  0.485E-01  0.485E-01
  -9.719  0.667E-01  0.667E-01
  -9.709  0.872E-01  0.872E-01
  -9.699  0.104E+00  0.104E+00
  -9.689  0.116E+00  0.116E+00
  -9.679  0.123E+00  0.123E+00
  -9.669  0.125E+00  0.125E+00
  -9.659  0.121E+00  0.121E+00
  -9.649  0.113E+00  0.113E+00
  -9.639  0.995E-01  0.995E-01
  -9.629  0.808E-01  0.808E-01
  -9.619  0.568E-01  0.568E-01
  -9.609  0.276E-01  0.276E-01
  -9.599  0.185E-01  0.185E-01
  -9.589  0.213E-01  0.213E-01
  -9.579  0.244E-01  0.244E-01
  -9.569  0.276E-01  0.276E-01
  -9.559  0.325E-01  0.325E-01
  -9.549  0.392E-01  0.392E-01
  -9.539  0.477E-01  0.477E-01
  -9.529  0.580E-01  0.580E-01
  -9.519  0.654E-01  0.654E-01
  -9.509  0.777E-01  0.777E-01
  -9.499  0.918E-01  0.918E-01
  -9.489  0.107E+00  0.107E+00
  -9.479  0.124E+00  0.124E+00
  -9.469  0.142E+00  0.142E+00
  -9.459  0.163E+00  0.163E+00
  -9.449  0.186E+00  0.186E+00
  -9.439  0.161E+00  0.161E+00
  -9.429  0.106E+00  0.106E+00
  -9.419  0.937E-01  0.937E-01
  -9.409  0.824E-01  0.824E-01
  -9.399  0.722E-01  0.722E-01
  -9.389  0.632E-01  0.632E-01
  -9.379  0.555E-01  0.555E-01
  -9.369  0.491E-01  0.491E-01
  -9.359  0.438E-01  0.438E-01
  -9.349  0.398E-01  0.398E-01
  -9.339  0.371E-01  0.371E-01
  -9.329  0.350E-01  0.350E-01
  -9.319  0.331E-01  0.331E-01
  -9.309  0.314E-01  0.314E-01
  -9.299  0.298E-01  0.298E-01
  -9.289  0.521E-01  0.521E-01
  -9.279  0.461E-01  0.461E-01
  -9.269  0.378E-01  0.378E-01
  -9.259  0.304E-01  0.304E-01
  -9.249  0.243E-01  0.243E-01
  -9.239  0.187E-01  0.187E-01
  -9.229  0.155E-01  0.155E-01
  -9.219  0.145E-01  0.145E-01
  -9.209  0.135E-01  0.135E-01
  -9.199  0.127E-01  0.127E-01
  -9.189  0.125E-01  0.125E-01
  -9.179  0.130E-01  0.130E-01
  -9.169  0.137E-01  0.137E-01
  -9.159  0.144E-01  0.144E-01
  -9.149  0.151E-01  0.151E-01
  -9.139  0.159E-01  0.159E-01
  -9.129  0.168E-01  0.168E-01
  -9.119  0.169E-01  0.169E-01
  -9.109  0.169E-01  0.169E-01
  -9.099  0.169E-01  0.169E-01
  -9.089  0.170E-01  0.170E-01
  -9.079  0.170E-01  0.170E-01
  -9.069  0.171E-01  0.171E-01
  -9.059  0.172E-01  0.172E-01
  -9.049  0.976E-01  0.976E-01
  -9.039  0.718E+00  0.718E+00
  -9.029  0.815E-02  0.815E-02
  -9.019  0.860E-02  0.860E-02
  -9.009  0.906E-02  0.906E-02
  -8.999  0.955E-02  0.955E-02
  -8.989  0.101E-01  0.101E-01
  -8.979  0.106E-01  0.106E-01
  -8.969  0.111E-01  0.111E-01
  -8.959  0.117E-01  0.117E-01
  -8.949  0.123E-01  0.123E-01
  -8.939  0.129E-01  0.129E-01
  -8.929  0.177E-01  0.177E-01
  -8.919  0.185E-01  0.185E-01
  -8.909  0.193E-01  0.193E-01
  -8.899  0.201E-01  0.201E-01
  -8.889  0.207E-01  0.207E-01
  -8.879  0.213E-01  0.213E-01
  -8.869  0.218E-01  0.218E-01
  -8.859  0.223E-01  0.223E-01
  -8.849  0.449E-01  0.449E-01
  -8.839  0.431E-01  0.431E-01
  -8.829  0.413E-01  0.413E-01
  -8.819  0.394E-01  0.394E-01
  -8.809  0.374E-01  0.374E-01
  -8.799  0.353E-01  0.353E-01
  -8.789  0.331E-01  0.331E-01
  -8.779  0.309E-01  0.309E-01
  -8.769  0.286E-01  0.286E-01
  -8.759  0.262E-01  0.262E-01
  -8.749  0.238E-01  0.238E-01
  -8.739  0.212E-01  0.212E-01
  -8.729  0.187E-01  0.187E-01
  -8.719  0.161E-01  0.161E-01
  -8.709  0.135E-01  0.135E-01
  -8.699  0.177E-01  0.177E-01
  -8.689  0.451E-01  0.451E-01
  -8.679  0.966E-01  0.966E-01
  -8.669  0.172E+00  0.172E+00
  -8.659  0.271E+00  0.271E+00
  -8.649  0.389E+00  0.389E+00
  -8.639  0.210E+00  0.210E+00
  -8.629  0.166E+00  0.166E+00
  -8.619  0.134E+00  0.134E+00
  -8.609  0.113E+00  0.113E+00
  -8.599  0.103E+00  0.103E+00
  -8.589  0.103E+00  0.103E+00
  -8.579  0.104E+00  0.104E+00
  -8.569  0.105E+00  0.105E+00
  -8.559  0.107E+00  0.107E+00
  -8.549  0.109E+00  0.109E+00
  -8.539  0.112E+00  0.112E+00
  -8.529  0.114E+00  0.114E+00
  -8.519  0.117E+00  0.117E+00
  -8.509  0.120E+00  0.120E+00
  -8.499  0.124E+00  0.124E+00
  -8.489  0.128E+00  0.128E+00
  -8.479  0.137E+00  0.137E+00
  -8.469  0.150E+00  0.150E+00
  -8.459  0.162E+00  0.162E+00
  -8.449  0.175E+00  0.175E+00
  -8.439  0.188E+00  0.188E+00
  -8.429  0.200E+00  0.200E+00
  -8.419  0.213E+00  0.213E+00
  -8.409  0.225E+00  0.225E+00
  -8.399  0.237E+00  0.237E+00
  -8.389  0.249E+00  0.249E+00
  -8.379  0.252E+00  0.252E+00
  -8.369  0.260E+00  0.260E+00
  -8.359  0.266E+00  0.266E+00
  -8.349  0.254E+00  0.254E+00
  -8.339  0.267E+00  0.267E+00
  -8.329  0.273E+00  0.273E+00
  -8.319  0.271E+00  0.271E+00
  -8.309  0.262E+00  0.262E+00
  -8.299  0.246E+00  0.246E+00
  -8.289  0.384E+00  0.384E+00
  -8.279  0.635E+00  0.635E+00
  -8.269  0.254E+00  0.254E+00
  -8.259  0.249E+00  0.249E+00
  -8.249  0.246E+00  0.246E+00
  -8.239  0.244E+00  0.244E+00
  -8.229  0.243E+00  0.243E+00
  -8.219  0.243E+00  0.243E+00
  -8.209  0.269E+00  0.269E+00
  -8.199  0.296E+00  0.296E+00
  -8.189  0.325E+00  0.325E+00
  -8.179  0.356E+00  0.356E+00
  -8.169  0.267E+00  0.267E+00
  -8.159  0.272E+00  0.272E+00
  -8.149  0.276E+00  0.276E+00
  -8.139  0.279E+00  0.279E+00
  -8.129  0.280E+00  0.280E+00
  -8.119  0.280E+00  0.280E+00
  -8.109  0.279E+00  0.279E+00
  -8.099  0.276E+00  0.276E+00
  -8.089  0.272E+00  0.272E+00
  -8.079  0.289E+00  0.289E+00
  -8.069  0.305E+00  0.305E+00
  -8.059  0.318E+00  0.318E+00
  -8.049  0.327E+00  0.327E+00
  -8.039  0.331E+00  0.331E+00
  -8.029  0.331E+00  0.331E+00
  -8.019  0.327E+00  0.327E+00
  -8.009  0.318E+00  0.318E+00
  -7.999  0.303E+00  0.303E+00
  -7.989  0.278E+00  0.278E+00
  -7.979  0.471E+00  0.471E+00
  -7.969  0.434E+00  0.434E+00
  -7.959  0.355E+00  0.355E+00
  -7.949  0.246E+00  0.246E+00
  -7.939  0.122E+00  0.122E+00
  -7.929  0.114E+00  0.114E+00
  -7.919  0.110E+00  0.110E+00
  -7.909  0.106E+00  0.106E+00
  -7.899  0.102E+00  0.102E+00
  -7.889  0.977E-01  0.977E-01
  -7.879  0.931E-01  0.931E-01
  -7.869  0.881E-01  0.881E-01
  -7.859  0.382E+00  0.382E+00
  -7.849  0.342E+00  0.342E+00
  -7.839  0.305E+00  0.305E+00
  -7.829  0.271E+00  0.271E+00
  -7.819  0.238E+00  0.238E+00
  -7.809  0.214E+00  0.214E+00
  -7.799  0.195E+00  0.195E+00
  -7.789  0.179E+00  0.179E+00
  -7.779  0.166E+00  0.166E+00
  -7.769  0.156E+00  0.156E+00
  -7.759  0.149E+00  0.149E+00
  -7.749  0.144E+00  0.144E+00
  -7.739  0.143E+00  0.143E+00
  -7.729  0.142E+00  0.142E+00
  -7.719  0.141E+00  0.141E+00
  -7.709  0.140E+00  0.140E+00
  -7.699  0.139E+00  0.139E+00
  -7.689  0.138E+00  0.138E+00
  -7.679  0.137E+00  0.137E+00
  -7.669  0.136E+00  0.136E+00
  -7.659  0.136E+00  0.136E+00
  -7.649  0.135E+00  0.135E+00
  -7.639  0.141E+00  0.141E+00
  -7.629  0.158E+00  0.158E+00
  -7.619  0.224E+00  0.224E+00
  -7.609  0.350E+00  0.350E+00
  -7.599  0.525E+00  0.525E+00
  -7.589  0.118E+00  0.118E+00
  -7.579  0.121E+00  0.121E+00
  -7.569  0.124E+00  0.124E+00
  -7.559  0.127E+00  0.127E+00
  -7.549  0.130E+00  0.130E+00
  -7.539  0.133E+00  0.133E+00
  -7.529  0.118E+00  0.118E+00
  -7.519  0.122E+00  0.122E+00
  -7.509  0.126E+00  0.126E+00
  -7.499  0.131E+00  0.131E+00
  -7.489  0.135E+00  0.135E+00
  -7.479  0.140E+00  0.140E+00
  -7.469  0.144E+00  0.144E+00
  -7.459  0.149E+00  0.149E+00
  -7.449  0.154E+00  0.154E+00
  -7.439  0.159E+00  0.159E+00
  -7.429  0.164E+00  0.164E+00
  -7.419  0.789E+00  0.789E+00
  -7.409  0.597E+00  0.597E+00
  -7.399  0.484E+00  0.484E+00
  -7.389  0.430E+00  0.430E+00
  -7.379  0.368E+00  0.368E+00
  -7.369  0.293E+00  0.293E+00
  -7.359  0.205E+00  0.205E+00
  -7.349  0.113E+00  0.113E+00
  -7.339  0.978E-01  0.978E-01
  -7.329  0.910E-01  0.910E-01
  -7.319  0.855E-01  0.855E-01
  -7.309  0.815E-01  0.815E-01
  -7.299  0.787E-01  0.787E-01
  -7.289  0.774E-01  0.774E-01
  -7.279  0.776E-01  0.776E-01
  -7.269  0.791E-01  0.791E-01
  -7.259  0.809E-01  0.809E-01
  -7.249  0.828E-01  0.828E-01
  -7.239  0.935E-01  0.935E-01
  -7.229  0.942E-01  0.942E-01
  -7.219  0.951E-01  0.951E-01
  -7.209  0.963E-01  0.963E-01
  -7.199  0.978E-01  0.978E-01
  -7.189  0.996E-01  0.996E-01
  -7.179  0.102E+00  0.102E+00
  -7.169  0.104E+00  0.104E+00
  -7.159  0.107E+00  0.107E+00
  -7.149  0.110E+00  0.110E+00
  -7.139  0.113E+00  0.113E+00
  -7.129  0.116E+00  0.116E+00
  -7.119  0.120E+00  0.120E+00
  -7.109  0.124E+00  0.124E+00
  -7.099  0.129E+00  0.129E+00
  -7.089  0.133E+00  0.133E+00
  -7.079  0.138E+00  0.138E+00
  -7.069  0.144E+00  0.144E+00
  -7.059  0.149E+00  0.149E+00
  -7.049  0.155E+00  0.155E+00
  -7.039  0.161E+00  0.161E+00
  -7.029  0.168E+00  0.168E+00
  -7.019  0.179E+00  0.179E+00
  -7.009  0.299E+00  0.299E+00
  -6.999  0.175E+00  0.175E+00
  -6.989  0.306E+00  0.306E+00
  -6.979  0.194E+00  0.194E+00
  -6.969  0.125E+00  0.125E+00
  -6.959  0.121E+00  0.121E+00
  -6.949  0.114E+00  0.114E+00
  -6.939  0.104E+00  0.104E+00
  -6.929  0.915E-01  0.915E-01
  -6.919  0.757E-01  0.757E-01
  -6.909  0.610E-01  0.610E-01
  -6.899  0.507E-01  0.507E-01
  -6.889  0.459E-01  0.459E-01
  -6.879  0.469E-01  0.469E-01
  -6.869  0.478E-01  0.478E-01
  -6.859  0.488E-01  0.488E-01
  -6.849  0.324E+01  0.324E+01
  -6.839  0.946E-01  0.946E-01
  -6.829  0.795E-01  0.795E-01
  -6.819  0.658E-01  0.658E-01
  -6.809  0.530E-01  0.530E-01
  -6.799  0.424E-01  0.424E-01
  -6.789  0.333E-01  0.333E-01
  -6.779  0.257E-01  0.257E-01
  -6.769  0.195E-01  0.195E-01
  -6.759  0.148E-01  0.148E-01
  -6.749  0.116E-01  0.116E-01
  -6.739  0.976E-02  0.976E-02
  -6.729  0.944E-02  0.944E-02
  -6.719  0.106E-01  0.106E-01
  -6.709  0.124E-01  0.124E-01
  -6.699  0.164E-01  0.164E-01
  -6.689  0.234E-01  0.234E-01
  -6.679  0.345E-01  0.345E-01
  -6.669  0.555E-01  0.555E-01
  -6.659  0.941E-01  0.941E-01
  -6.649  0.150E+00  0.150E+00
  -6.639  0.223E+00  0.223E+00
  -6.629  0.313E+00  0.313E+00
  -6.619  0.419E+00  0.419E+00
  -6.609  0.199E+00  0.199E+00
  -6.599  0.176E+00  0.176E+00
  -6.589  0.157E+00  0.157E+00
  -6.579  0.143E+00  0.143E+00
  -6.569  0.133E+00  0.133E+00
  -6.559  0.128E+00  0.128E+00
  -6.549  0.128E+00  0.128E+00
  -6.539  0.134E+00  0.134E+00
  -6.529  0.161E+00  0.161E+00
  -6.519  0.211E+00  0.211E+00
  -6.509  0.119E+00  0.119E+00
  -6.499  0.119E+00  0.119E+00
  -6.489  0.119E+00  0.119E+00
  -6.479  0.119E+00  0.119E+00
  -6.469  0.118E+00  0.118E+00
  -6.459  0.118E+00  0.118E+00
  -6.449  0.117E+00  0.117E+00
  -6.439  0.117E+00  0.117E+00
  -6.429  0.116E+00  0.116E+00
  -6.419  0.115E+00  0.115E+00
  -6.409  0.114E+00  0.114E+00
  -6.399  0.113E+00  0.113E+00
  -6.389  0.112E+00  0.112E+00
  -6.379  0.120E+00  0.120E+00
  -6.369  0.140E+00  0.140E+00
  -6.359  0.157E+00  0.157E+00
  -6.349  0.169E+00  0.169E+00
  -6.339  0.177E+00  0.177E+00
  -6.329  0.180E+00  0.180E+00
  -6.319  0.214E+00  0.214E+00
  -6.309  0.275E+00  0.275E+00
  -6.299  0.373E-01  0.373E-01
  -6.289  0.391E-01  0.391E-01
  -6.279  0.413E-01  0.413E-01
  -6.269  0.437E-01  0.437E-01
  -6.259  0.462E-01  0.462E-01
  -6.249  0.489E-01  0.489E-01
  -6.239  0.513E-01  0.513E-01
  -6.229  0.558E-01  0.558E-01
  -6.219  0.602E-01  0.602E-01
  -6.209  0.648E-01  0.648E-01
  -6.199  0.693E-01  0.693E-01
  -6.189  0.795E-01  0.795E-01
  -6.179  0.826E-01  0.826E-01
  -6.169  0.857E-01  0.857E-01
  -6.159  0.908E-01  0.908E-01
  -6.149  0.938E-01  0.938E-01
  -6.139  0.969E-01  0.969E-01
  -6.129  0.101E+00  0.101E+00
  -6.119  0.105E+00  0.105E+00
  -6.109  0.111E+00  0.111E+00
  -6.099  0.116E+00  0.116E+00
  -6.089  0.122E+00  0.122E+00
  -6.079  0.127E+00  0.127E+00
  -6.069  0.131E+00  0.131E+00
  -6.059  0.137E+00  0.137E+00
  -6.049  0.152E+00  0.152E+00
  -6.039  0.174E+00  0.174E+00
  -6.029  0.190E+00  0.190E+00
  -6.019  0.203E+00  0.203E+00
  -6.009  0.215E+00  0.215E+00
  -5.999  0.227E+00  0.227E+00
  -5.989  0.237E+00  0.237E+00
  -5.979  0.244E+00  0.244E+00
  -5.969  0.244E+00  0.244E+00
  -5.959  0.242E+00  0.242E+00
  -5.949  0.237E+00  0.237E+00
  -5.939  0.230E+00  0.230E+00
  -5.929  0.220E+00  0.220E+00
  -5.919  0.211E+00  0.211E+00
  -5.909  0.570E+00  0.570E+00
  -5.899  0.173E+00  0.173E+00
  -5.889  0.168E+00  0.168E+00
  -5.879  0.163E+00  0.163E+00
  -5.869  0.153E+00  0.153E+00
  -5.859  0.146E+00  0.146E+00
  -5.849  0.139E+00  0.139E+00
  -5.839  0.131E+00  0.131E+00
  -5.829  0.123E+00  0.123E+00
  -5.819  0.114E+00  0.114E+00
  -5.809  0.104E+00  0.104E+00
  -5.799  0.936E-01  0.936E-01
  -5.789  0.825E-01  0.825E-01
  -5.779  0.706E-01  0.706E-01
  -5.769  0.580E-01  0.580E-01
  -5.759  0.447E-01  0.447E-01
  -5.749  0.307E-01  0.307E-01
  -5.739  0.160E-01  0.160E-01
  -5.729  0.123E-01  0.123E-01
  -5.719  0.976E-02  0.976E-02
  -5.709  0.839E-02  0.839E-02
  -5.699  0.789E-02  0.789E-02
  -5.689  0.779E-02  0.779E-02
  -5.679  0.757E-02  0.757E-02
  -5.669  0.723E-02  0.723E-02
  -5.659  0.680E-02  0.680E-02
  -5.649  0.635E-02  0.635E-02
  -5.639  0.592E-02  0.592E-02
  -5.629  0.552E-02  0.552E-02
  -5.619  0.513E-02  0.513E-02
  -5.609  0.476E-02  0.476E-02
  -5.599  0.441E-02  0.441E-02
  -5.589  0.408E-02  0.408E-02
  -5.579  0.376E-02  0.376E-02
  -5.569  0.327E-02  0.327E-02
  -5.559  0.311E-02  0.311E-02
  -5.549  0.294E-02  0.294E-02
  -5.539  0.278E-02  0.278E-02
  -5.529  0.262E-02  0.262E-02
  -5.519  0.246E-02  0.246E-02
  -5.509  0.230E-02  0.230E-02
  -5.499  0.214E-02  0.214E-02
  -5.489  0.199E-02  0.199E-02
  -5.479  0.184E-02  0.184E-02
  -5.469  0.168E-02  0.168E-02
  -5.459  0.153E-02  0.153E-02
  -5.449  0.139E-02  0.139E-02
  -5.439  0.124E-02  0.124E-02
  -5.429  0.109E-02  0.109E-02
  -5.419  0.949E-03  0.949E-03
  -5.409  0.806E-03  0.806E-03
  -5.399  0.172E-02  0.172E-02
  -5.389  0.790E-03  0.790E-03
  -5.379  0.555E-03  0.555E-03
  -5.369  0.649E-03  0.649E-03
  -5.359  0.106E-02  0.106E-02
  -5.349  0.173E-02  0.173E-02
  -5.339  0.268E-02  0.268E-02
  -5.329  0.390E-02  0.390E-02
  -5.319  0.539E-02  0.539E-02
  -5.309  0.715E-02  0.715E-02
  -5.299  0.917E-02  0.917E-02
  -5.289  0.115E-01  0.115E-01
  -5.279  0.140E-01  0.140E-01
  -5.269  0.230E-01  0.230E-01
  -5.259  0.413E-01  0.413E-01
  -5.249  0.484E-01  0.484E-01
  -5.239  0.521E-01  0.521E-01
  -5.229  0.719E-01  0.719E-01
  -5.219  0.102E+00  0.102E+00
  -5.209  0.641E-01  0.641E-01
  -5.199  0.481E-01  0.481E-01
  -5.189  0.498E-01  0.498E-01
  -5.179  0.633E-01  0.633E-01
  -5.169  0.923E-01  0.923E-01
  -5.159  0.643E-01  0.643E-01
  -5.149  0.416E-01  0.416E-01
  -5.139  0.474E-01  0.474E-01
  -5.129  0.490E-01  0.490E-01
  -5.119  0.500E-01  0.500E-01
  -5.109  0.512E-01  0.512E-01
  -5.099  0.526E-01  0.526E-01
  -5.089  0.542E-01  0.542E-01
  -5.079  0.561E-01  0.561E-01
  -5.069  0.579E-01  0.579E-01
  -5.059  0.593E-01  0.593E-01
  -5.049  0.604E-01  0.604E-01
  -5.039  0.617E-01  0.617E-01
  -5.029  0.626E-01  0.626E-01
  -5.019  0.632E-01  0.632E-01
  -5.009  0.673E-01  0.673E-01
  -4.999  0.797E-01  0.797E-01
  -4.989  0.100E+00  0.100E+00
  -4.979  0.129E+00  0.129E+00
  -4.969  0.167E+00  0.167E+00
  -4.959  0.212E+00  0.212E+00
  -4.949  0.196E-01  0.196E-01
  -4.939  0.246E-01  0.246E-01
  -4.929  0.197E-01  0.197E-01
  -4.919  0.117E-01  0.117E-01
  -4.909  0.580E-02  0.580E-02
  -4.899  0.195E-02  0.195E-02
  -4.889  0.439E-01  0.439E-01
  -4.879  0.803E-01  0.803E-01
  -4.869  0.292E-01  0.292E-01
  -4.859  0.193E-02  0.193E-02
  -4.849  0.646E-01  0.646E-01
  -4.839  0.116E+00  0.116E+00
  -4.829  0.135E+00  0.135E+00
  -4.819  0.122E+00  0.122E+00
  -4.809  0.758E-01  0.758E-01
  -4.799  0.930E-02  0.930E-02
  -4.789  0.155E-01  0.155E-01
  -4.779  0.226E-01  0.226E-01
  -4.769  0.304E-01  0.304E-01
  -4.759  0.287E-01  0.287E-01
  -4.749  0.342E-01  0.342E-01
  -4.739  0.400E-01  0.400E-01
  -4.729  0.459E-01  0.459E-01
  -4.719  0.521E-01  0.521E-01
  -4.709  0.586E-01  0.586E-01
  -4.699  0.652E-01  0.652E-01
  -4.689  0.755E-01  0.755E-01
  -4.679  0.931E-01  0.931E-01
  -4.669  0.101E+00  0.101E+00
  -4.659  0.936E-01  0.936E-01
  -4.649  0.738E-01  0.738E-01
  -4.639  0.410E-01  0.410E-01
  -4.629  0.874E-02  0.874E-02
  -4.619  0.133E-01  0.133E-01
  -4.609  0.263E-01  0.263E-01
  -4.599  0.168E-01  0.168E-01
  -4.589  0.694E-02  0.694E-02
  -4.579  0.727E-02  0.727E-02
  -4.569  0.759E-02  0.759E-02
  -4.559  0.853E-02  0.853E-02
  -4.549  0.111E-01  0.111E-01
  -4.539  0.154E-01  0.154E-01
  -4.529  0.214E-01  0.214E-01
  -4.519  0.259E-01  0.259E-01
  -4.509  0.341E-01  0.341E-01
  -4.499  0.453E-01  0.453E-01
  -4.489  0.579E-01  0.579E-01
  -4.479  0.756E-01  0.756E-01
  -4.469  0.813E-01  0.813E-01
  -4.459  0.955E-01  0.955E-01
  -4.449  0.113E+00  0.113E+00
  -4.439  0.199E+00  0.199E+00
  -4.429  0.154E+00  0.154E+00
  -4.419  0.119E+00  0.119E+00
  -4.409  0.946E-01  0.946E-01
  -4.399  0.800E-01  0.800E-01
  -4.389  0.743E-01  0.743E-01
  -4.379  0.696E-01  0.696E-01
  -4.369  0.647E-01  0.647E-01
  -4.359  0.618E-01  0.618E-01
  -4.349  0.604E-01  0.604E-01
  -4.339  0.604E-01  0.604E-01
  -4.329  0.600E-01  0.600E-01
  -4.319  0.601E-01  0.601E-01
  -4.309  0.616E-01  0.616E-01
  -4.299  0.625E-01  0.625E-01
  -4.289  0.585E-01  0.585E-01
  -4.279  0.531E-01  0.531E-01
  -4.269  0.463E-01  0.463E-01
  -4.259  0.382E-01  0.382E-01
  -4.249  0.236E-01  0.236E-01
  -4.239  0.217E-01  0.217E-01
  -4.229  0.504E-01  0.504E-01
  -4.219  0.476E-01  0.476E-01
  -4.209  0.453E-01  0.453E-01
  -4.199  0.438E-01  0.438E-01
  -4.189  0.457E-01  0.457E-01
  -4.179  0.515E-01  0.515E-01
  -4.169  0.613E-01  0.613E-01
  -4.159  0.751E-01  0.751E-01
  -4.149  0.928E-01  0.928E-01
  -4.139  0.111E+00  0.111E+00
  -4.129  0.132E+00  0.132E+00
  -4.119  0.158E+00  0.158E+00
  -4.109  0.174E+00  0.174E+00
  -4.099  0.865E-01  0.865E-01
  -4.089  0.892E-01  0.892E-01
  -4.079  0.918E-01  0.918E-01
  -4.069  0.939E-01  0.939E-01
  -4.059  0.970E-01  0.970E-01
  -4.049  0.100E+00  0.100E+00
  -4.039  0.103E+00  0.103E+00
  -4.029  0.106E+00  0.106E+00
  -4.019  0.109E+00  0.109E+00
  -4.009  0.112E+00  0.112E+00
  -3.999  0.115E+00  0.115E+00
  -3.989  0.123E+00  0.123E+00
  -3.979  0.994E-01  0.994E-01
  -3.969  0.783E-01  0.783E-01
  -3.959  0.856E-01  0.856E-01
  -3.949  0.107E+00  0.107E+00
  -3.939  0.118E+00  0.118E+00
  -3.929  0.420E-01  0.420E-01
  -3.919  0.335E-01  0.335E-01
  -3.909  0.280E-01  0.280E-01
  -3.899  0.255E-01  0.255E-01
  -3.889  0.241E-01  0.241E-01
  -3.879  0.227E-01  0.227E-01
  -3.869  0.214E-01  0.214E-01
  -3.859  0.200E-01  0.200E-01
  -3.849  0.179E-01  0.179E-01
  -3.839  0.131E-01  0.131E-01
  -3.829  0.918E-02  0.918E-02
  -3.819  0.670E-02  0.670E-02
  -3.809  0.436E-02  0.436E-02
  -3.799  0.567E-02  0.567E-02
  -3.789  0.791E-02  0.791E-02
  -3.779  0.102E-01  0.102E-01
  -3.769  0.116E-01  0.116E-01
  -3.759  0.121E-01  0.121E-01
  -3.749  0.119E-01  0.119E-01
  -3.739  0.239E-01  0.239E-01
  -3.729  0.146E-01  0.146E-01
  -3.719  0.782E-02  0.782E-02
  -3.709  0.732E-02  0.732E-02
  -3.699  0.697E-02  0.697E-02
  -3.689  0.708E-02  0.708E-02
  -3.679  0.801E-02  0.801E-02
  -3.669  0.973E-02  0.973E-02
  -3.659  0.120E-01  0.120E-01
  -3.649  0.148E-01  0.148E-01
  -3.639  0.183E-01  0.183E-01
  -3.629  0.781E-02  0.781E-02
  -3.619  0.867E-02  0.867E-02
  -3.609  0.104E-01  0.104E-01
  -3.599  0.122E-01  0.122E-01
  -3.589  0.138E-01  0.138E-01
  -3.579  0.154E-01  0.154E-01
  -3.569  0.169E-01  0.169E-01
  -3.559  0.184E-01  0.184E-01
  -3.549  0.198E-01  0.198E-01
  -3.539  0.216E-01  0.216E-01
  -3.529  0.242E-01  0.242E-01
  -3.519  0.276E-01  0.276E-01
  -3.509  0.337E-01  0.337E-01
  -3.499  0.433E-01  0.433E-01
  -3.489  0.400E-01  0.400E-01
  -3.479  0.506E-01  0.506E-01
  -3.469  0.234E-01  0.234E-01
  -3.459  0.233E-01  0.233E-01
  -3.449  0.231E-01  0.231E-01
  -3.439  0.229E-01  0.229E-01
  -3.429  0.226E-01  0.226E-01
  -3.419  0.222E-01  0.222E-01
  -3.409  0.218E-01  0.218E-01
  -3.399  0.213E-01  0.213E-01
  -3.389  0.208E-01  0.208E-01
  -3.379  0.202E-01  0.202E-01
  -3.369  0.196E-01  0.196E-01
  -3.359  0.190E-01  0.190E-01
  -3.349  0.188E-01  0.188E-01
  -3.339  0.185E-01  0.185E-01
  -3.329  0.182E-01  0.182E-01
  -3.319  0.181E-01  0.181E-01
  -3.309  0.180E-01  0.180E-01
  -3.299  0.179E-01  0.179E-01
  -3.289  0.180E-01  0.180E-01
  -3.279  0.182E-01  0.182E-01
  -3.269  0.185E-01  0.185E-01
  -3.259  0.173E-01  0.173E-01
  -3.249  0.176E-01  0.176E-01
  -3.239  0.179E-01  0.179E-01
  -3.229  0.182E-01  0.182E-01
  -3.219  0.184E-01  0.184E-01
  -3.209  0.187E-01  0.187E-01
  -3.199  0.189E-01  0.189E-01
  -3.189  0.191E-01  0.191E-01
  -3.179  0.193E-01  0.193E-01
  -3.169  0.195E-01  0.195E-01
  -3.159  0.198E-01  0.198E-01
  -3.149  0.200E-01  0.200E-01
  -3.139  0.199E-01  0.199E-01
  -3.129  0.200E-01  0.200E-01
  -3.119  0.204E-01  0.204E-01
  -3.109  0.211E-01  0.211E-01
  -3.099  0.218E-01  0.218E-01
  -3.089  0.225E-01  0.225E-01
  -3.079  0.232E-01  0.232E-01
  -3.069  0.239E-01  0.239E-01
  -3.059  0.243E-01  0.243E-01
  -3.049  0.248E-01  0.248E-01
  -3.039  0.245E-01  0.245E-01
  -3.029  0.260E-01  0.260E-01
  -3.019  0.375E-01  0.375E-01
  -3.009  0.240E-01  0.240E-01
  -2.999  0.242E-01  0.242E-01
  -2.989  0.244E-01  0.244E-01
  -2.979  0.245E-01  0.245E-01
  -2.969  0.246E-01  0.246E-01
  -2.959  0.247E-01  0.247E-01
  -2.949  0.290E-01  0.290E-01
  -2.939  0.277E-01  0.277E-01
  -2.929  0.267E-01  0.267E-01
  -2.919  0.258E-01  0.258E-01
  -2.909  0.379E-01  0.379E-01
  -2.899  0.336E-01  0.336E-01
  -2.889  0.254E-01  0.254E-01
  -2.879  0.214E-01  0.214E-01
  -2.869  0.167E-01  0.167E-01
  -2.859  0.127E-01  0.127E-01
  -2.849  0.113E-01  0.113E-01
  -2.839  0.999E-02  0.999E-02
  -2.829  0.877E-02  0.877E-02
  -2.819  0.764E-02  0.764E-02
  -2.809  0.660E-02  0.660E-02
  -2.799  0.772E-02  0.772E-02
  -2.789  0.413E-01  0.413E-01
  -2.779  0.630E-02  0.630E-02
  -2.769  0.796E-02  0.796E-02
  -2.759  0.937E-02  0.937E-02
  -2.749  0.111E-01  0.111E-01
  -2.739  0.126E-01  0.126E-01
  -2.729  0.141E-01  0.141E-01
  -2.719  0.157E-01  0.157E-01
  -2.709  0.327E-01  0.327E-01
  -2.699  0.226E-01  0.226E-01
  -2.689  0.253E-01  0.253E-01
  -2.679  0.289E-01  0.289E-01
  -2.669  0.344E-01  0.344E-01
  -2.659  0.506E-01  0.506E-01
  -2.649  0.476E-01  0.476E-01
  -2.639  0.533E-01  0.533E-01
  -2.629  0.475E-01  0.475E-01
  -2.619  0.288E-01  0.288E-01
  -2.609  0.141E-01  0.141E-01
  -2.599  0.137E-01  0.137E-01
  -2.589  0.193E-01  0.193E-01
  -2.579  0.185E-01  0.185E-01
  -2.569  0.178E-01  0.178E-01
  -2.559  0.305E-01  0.305E-01
  -2.549  0.109E-01  0.109E-01
  -2.539  0.175E-01  0.175E-01
  -2.529  0.211E-01  0.211E-01
  -2.519  0.193E-01  0.193E-01
  -2.509  0.316E-01  0.316E-01
  -2.499  0.314E-01  0.314E-01
  -2.489  0.308E-01  0.308E-01
  -2.479  0.294E-01  0.294E-01
  -2.469  0.282E-01  0.282E-01
  -2.459  0.264E-01  0.264E-01
  -2.449  0.239E-01  0.239E-01
  -2.439  0.212E-01  0.212E-01
  -2.429  0.222E-01  0.222E-01
  -2.419  0.226E-01  0.226E-01
  -2.409  0.240E-01  0.240E-01
  -2.399  0.240E-01  0.240E-01
  -2.389  0.349E-01  0.349E-01
  -2.379  0.403E-01  0.403E-01
  -2.369  0.213E-01  0.213E-01
  -2.359  0.201E-01  0.201E-01
  -2.349  0.852E-01  0.852E-01
  -2.339  0.661E-01  0.661E-01
  -2.329  0.338E-01  0.338E-01
  -2.319  0.310E-01  0.310E-01
  -2.309  0.320E-01  0.320E-01
  -2.299  0.275E-01  0.275E-01
  -2.289  0.212E-01  0.212E-01
  -2.279  0.202E-01  0.202E-01
  -2.269  0.190E-01  0.190E-01
  -2.259  0.175E-01  0.175E-01
  -2.249  0.179E-01  0.179E-01
  -2.239  0.191E-01  0.191E-01
  -2.229  0.202E-01  0.202E-01
  -2.219  0.214E-01  0.214E-01
  -2.209  0.226E-01  0.226E-01
  -2.199  0.237E-01  0.237E-01
  -2.189  0.249E-01  0.249E-01
  -2.179  0.483E-01  0.483E-01
  -2.169  0.151E-01  0.151E-01
  -2.159  0.280E-01  0.280E-01
  -2.149  0.529E-01  0.529E-01
  -2.139  0.662E-01  0.662E-01
  -2.129  0.720E-01  0.720E-01
  -2.119  0.540E-01  0.540E-01
  -2.109  0.524E-01  0.524E-01
  -2.099  0.710E-01  0.710E-01
  -2.089  0.154E-01  0.154E-01
  -2.079  0.147E-01  0.147E-01
  -2.069  0.141E-01  0.141E-01
  -2.059  0.136E-01  0.136E-01
  -2.049  0.162E-01  0.162E-01
  -2.039  0.165E-01  0.165E-01
  -2.029  0.168E-01  0.168E-01
  -2.019  0.185E-01  0.185E-01
  -2.009  0.189E-01  0.189E-01
  -1.999  0.193E-01  0.193E-01
  -1.989  0.197E-01  0.197E-01
  -1.979  0.200E-01  0.200E-01
  -1.969  0.206E-01  0.206E-01
  -1.959  0.213E-01  0.213E-01
  -1.949  0.220E-01  0.220E-01
  -1.939  0.227E-01  0.227E-01
  -1.929  0.234E-01  0.234E-01
  -1.919  0.242E-01  0.242E-01
  -1.909  0.382E-01  0.382E-01
  -1.899  0.496E-01  0.496E-01
  -1.889  0.561E-01  0.561E-01
  -1.879  0.576E-01  0.576E-01
  -1.869  0.508E-01  0.508E-01
  -1.859  0.936E-01  0.936E-01
  -1.849  0.919E-01  0.919E-01
  -1.839  0.301E+00  0.301E+00
  -1.829  0.650E-01  0.650E-01
  -1.819  0.632E-01  0.632E-01
  -1.809  0.559E-01  0.559E-01
  -1.799  0.444E-01  0.444E-01
  -1.789  0.457E-01  0.457E-01
  -1.779  0.465E-01  0.465E-01
  -1.769  0.468E-01  0.468E-01
  -1.759  0.468E-01  0.468E-01
  -1.749  0.462E-01  0.462E-01
  -1.739  0.452E-01  0.452E-01
  -1.729  0.438E-01  0.438E-01
  -1.719  0.419E-01  0.419E-01
  -1.709  0.396E-01  0.396E-01
  -1.699  0.406E-01  0.406E-01
  -1.689  0.425E-01  0.425E-01
  -1.679  0.445E-01  0.445E-01
  -1.669  0.465E-01  0.465E-01
  -1.659  0.486E-01  0.486E-01
  -1.649  0.507E-01  0.507E-01
  -1.639  0.384E-01  0.384E-01
  -1.629  0.313E-01  0.313E-01
  -1.619  0.290E-01  0.290E-01
  -1.609  0.331E-01  0.331E-01
  -1.599  0.436E-01  0.436E-01
  -1.589  0.632E-01  0.632E-01
  -1.579  0.143E+00  0.143E+00
  -1.569  0.432E-01  0.432E-01
  -1.559  0.188E-01  0.188E-01
  -1.549  0.116E+00  0.116E+00
  -1.539  0.582E-01  0.582E-01
  -1.529  0.565E-01  0.565E-01
  -1.519  0.537E-01  0.537E-01
  -1.509  0.498E-01  0.498E-01
  -1.499  0.448E-01  0.448E-01
  -1.489  0.386E-01  0.386E-01
  -1.479  0.315E-01  0.315E-01
  -1.469  0.232E-01  0.232E-01
  -1.459  0.150E-01  0.150E-01
  -1.449  0.158E-01  0.158E-01
  -1.439  0.169E-01  0.169E-01
  -1.429  0.183E-01  0.183E-01
  -1.419  0.199E-01  0.199E-01
  -1.409  0.218E-01  0.218E-01
  -1.399  0.239E-01  0.239E-01
  -1.389  0.262E-01  0.262E-01
  -1.379  0.288E-01  0.288E-01
  -1.369  0.317E-01  0.317E-01
  -1.359  0.347E-01  0.347E-01
  -1.349  0.381E-01  0.381E-01
  -1.339  0.416E-01  0.416E-01
  -1.329  0.454E-01  0.454E-01
  -1.319  0.247E-01  0.247E-01
  -1.309  0.248E-01  0.248E-01
  -1.299  0.249E-01  0.249E-01
  -1.289  0.250E-01  0.250E-01
  -1.279  0.250E-01  0.250E-01
  -1.269  0.250E-01  0.250E-01
  -1.259  0.249E-01  0.249E-01
  -1.249  0.248E-01  0.248E-01
  -1.239  0.245E-01  0.245E-01
  -1.229  0.240E-01  0.240E-01
  -1.219  0.234E-01  0.234E-01
  -1.209  0.228E-01  0.228E-01
  -1.199  0.222E-01  0.222E-01
  -1.189  0.216E-01  0.216E-01
  -1.179  0.211E-01  0.211E-01
  -1.169  0.205E-01  0.205E-01
  -1.159  0.199E-01  0.199E-01
  -1.149  0.193E-01  0.193E-01
  -1.139  0.187E-01  0.187E-01
  -1.129  0.182E-01  0.182E-01
  -1.119  0.176E-01  0.176E-01
  -1.109  0.170E-01  0.170E-01
  -1.099  0.167E-01  0.167E-01
  -1.089  0.166E-01  0.166E-01
  -1.079  0.165E-01  0.165E-01
  -1.069  0.164E-01  0.164E-01
  -1.059  0.164E-01  0.164E-01
  -1.049  0.163E-01  0.163E-01
  -1.039  0.162E-01  0.162E-01
  -1.029  0.161E-01  0.161E-01
  -1.019  0.160E-01  0.160E-01
  -1.009  0.159E-01  0.159E-01
  -0.999  0.158E-01  0.158E-01
  -0.989  0.157E-01  0.157E-01
  -0.979  0.156E-01  0.156E-01
  -0.969  0.155E-01  0.155E-01
  -0.959  0.154E-01  0.154E-01
  -0.949  0.128E-01  0.128E-01
  -0.939  0.126E-01  0.126E-01
  -0.929  0.124E-01  0.124E-01
  -0.919  0.121E-01  0.121E-01
  -0.909  0.119E-01  0.119E-01
  -0.899  0.115E-01  0.115E-01
  -0.889  0.112E-01  0.112E-01
  -0.879  0.108E-01  0.108E-01
  -0.869  0.104E-01  0.104E-01
  -0.859  0.992E-02  0.992E-02
  -0.849  0.943E-02  0.943E-02
  -0.839  0.890E-02  0.890E-02
  -0.829  0.834E-02  0.834E-02
  -0.819  0.774E-02  0.774E-02
  -0.809  0.711E-02  0.711E-02
  -0.799  0.645E-02  0.645E-02
  -0.789  0.575E-02  0.575E-02
  -0.779  0.501E-02  0.501E-02
  -0.769  0.424E-02  0.424E-02
  -0.759  0.344E-02  0.344E-02
  -0.749  0.260E-02  0.260E-02
  -0.739  0.173E-02  0.173E-02
  -0.729  0.821E-03  0.821E-03
  -0.719  0.000E+00  0.000E+00
  -0.709  0.000E+00  0.000E+00
  -0.699  0.000E+00  0.000E+00
  -0.689  0.000E+00  0.000E+00
  -0.679  0.000E+00  0.000E+00
  -0.669  0.000E+00  0.000E+00
  -0.659  0.000E+00  0.000E+00
  -0.649  0.000E+00  0.000E+00
  -0.639  0.000E+00  0.000E+00
  -0.629  0.000E+00  0.000E+00
  -0.619  0.186E-05  0.186E-05
  -0.609  0.287E-04  0.287E-04
  -0.599  0.847E-04  0.847E-04
  -0.589  0.172E-03  0.172E-03
  -0.579  0.314E-03  0.314E-03
  -0.569  0.818E-03  0.818E-03
  -0.559  0.144E-02  0.144E-02
  -0.549  0.211E-02  0.211E-02
  -0.539  0.282E-02  0.282E-02
  -0.529  0.359E-02  0.359E-02
  -0.519  0.440E-02  0.440E-02
  -0.509  0.526E-02  0.526E-02
  -0.499  0.616E-02  0.616E-02
  -0.489  0.711E-02  0.711E-02
  -0.479  0.811E-02  0.811E-02
  -0.469  0.916E-02  0.916E-02
  -0.459  0.103E-01  0.103E-01
  -0.449  0.114E-01  0.114E-01
  -0.439  0.126E-01  0.126E-01
  -0.429  0.138E-01  0.138E-01
  -0.419  0.249E-01  0.249E-01
  -0.409  0.252E-01  0.252E-01
  -0.399  0.266E-01  0.266E-01
  -0.389  0.267E-01  0.267E-01
  -0.379  0.267E-01  0.267E-01
  -0.369  0.267E-01  0.267E-01
  -0.359  0.297E-01  0.297E-01
  -0.349  0.442E-01  0.442E-01
  -0.339  0.622E-01  0.622E-01
  -0.329  0.799E-01  0.799E-01
  -0.319  0.469E-01  0.469E-01
  -0.309  0.423E-01  0.423E-01
  -0.299  0.380E-01  0.380E-01
  -0.289  0.232E-01  0.232E-01
  -0.279  0.166E-01  0.166E-01
  -0.269  0.169E-01  0.169E-01
  -0.259  0.522E-01  0.522E-01
  -0.249  0.508E-01  0.508E-01
  -0.239  0.497E-01  0.497E-01
  -0.229  0.728E-01  0.728E-01
  -0.219  0.477E-02  0.477E-02
  -0.209  0.465E-02  0.465E-02
  -0.199  0.452E-02  0.452E-02
  -0.189  0.438E-02  0.438E-02
  -0.179  0.422E-02  0.422E-02
  -0.169  0.405E-02  0.405E-02
  -0.159  0.387E-02  0.387E-02
  -0.149  0.367E-02  0.367E-02
  -0.139  0.346E-02  0.346E-02
  -0.129  0.324E-02  0.324E-02
  -0.119  0.300E-02  0.300E-02
  -0.109  0.758E-02  0.758E-02
  -0.099  0.175E-01  0.175E-01
  -0.089  0.550E-01  0.550E-01
  -0.079  0.138E+00  0.138E+00
  -0.069  0.293E+00  0.293E+00
  -0.059  0.628E+00  0.628E+00
  -0.049  0.268E+00  0.268E+00
  -0.039  0.296E+00  0.296E+00
  -0.029  0.214E+00  0.214E+00
  -0.019  0.270E+00  0.270E+00
  -0.009  0.255E+00  0.255E+00
   0.001  0.236E+00  0.236E+00
   0.011  0.219E+00  0.219E+00
   0.021  0.190E+00  0.190E+00
   0.031  0.138E+00  0.138E+00
   0.041  0.115E+00  0.115E+00
   0.051  0.131E+00  0.131E+00
   0.061  0.195E+00  0.195E+00
   0.071  0.207E+00  0.207E+00
   0.081  0.483E-01  0.483E-01
   0.091  0.171E-01  0.171E-01
   0.101  0.172E-01  0.172E-01
   0.111  0.174E-01  0.174E-01
   0.121  0.175E-01  0.175E-01
   0.131  0.176E-01  0.176E-01
   0.141  0.177E-01  0.177E-01
   0.151  0.178E-01  0.178E-01
   0.161  0.179E-01  0.179E-01
   0.171  0.181E-01  0.181E-01
   0.181  0.182E-01  0.182E-01
   0.191  0.182E-01  0.182E-01
   0.201  0.183E-01  0.183E-01
   0.211  0.184E-01  0.184E-01
   0.221  0.185E-01  0.185E-01
   0.231  0.186E-01  0.186E-01
   0.241  0.186E-01  0.186E-01
   0.251  0.187E-01  0.187E-01
   0.261  0.188E-01  0.188E-01
   0.271  0.188E-01  0.188E-01
   0.281  0.189E-01  0.189E-01
   0.291  0.189E-01  0.189E-01
   0.301  0.190E-01  0.190E-01
   0.311  0.190E-01  0.190E-01
   0.321  0.191E-01  0.191E-01
   0.331  0.191E-01  0.191E-01
   0.341  0.191E-01  0.191E-01
   0.351  0.192E-01  0.192E-01
   0.361  0.192E-01  0.192E-01
   0.371  0.192E-01  0.192E-01
   0.381  0.385E-01  0.385E-01
   0.391  0.114E+00  0.114E+00
   0.401  0.169E+00  0.169E+00
   0.411  0.631E-01  0.631E-01
   0.421  0.672E-01  0.672E-01
   0.431  0.711E-01  0.711E-01
   0.441  0.771E-01  0.771E-01
   0.451  0.830E-01  0.830E-01
   0.461  0.891E-01  0.891E-01
   0.471  0.137E+00  0.137E+00
   0.481  0.177E+00  0.177E+00
   0.491  0.200E+00  0.200E+00
   0.501  0.205E+00  0.205E+00
   0.511  0.191E+00  0.191E+00
   0.521  0.191E+00  0.191E+00
   0.531  0.200E+00  0.200E+00
   0.541  0.220E+00  0.220E+00
   0.551  0.210E+00  0.210E+00
   0.561  0.166E+00  0.166E+00
   0.571  0.131E+00  0.131E+00
   0.581  0.133E+00  0.133E+00
   0.591  0.135E+00  0.135E+00
   0.601  0.144E+00  0.144E+00
   0.611  0.150E+00  0.150E+00
   0.621  0.145E+00  0.145E+00
   0.631  0.132E+00  0.132E+00
   0.641  0.124E+00  0.124E+00
   0.651  0.121E+00  0.121E+00
   0.661  0.115E+00  0.115E+00
   0.671  0.109E+00  0.109E+00
   0.681  0.105E+00  0.105E+00
   0.691  0.101E+00  0.101E+00
   0.701  0.980E-01  0.980E-01
   0.711  0.962E-01  0.962E-01
   0.721  0.951E-01  0.951E-01
   0.731  0.947E-01  0.947E-01
   0.741  0.951E-01  0.951E-01
   0.751  0.128E+00  0.128E+00
   0.761  0.113E+00  0.113E+00
   0.771  0.103E+00  0.103E+00
   0.781  0.978E-01  0.978E-01
   0.791  0.967E-01  0.967E-01
   0.801  0.932E-01  0.932E-01
   0.811  0.934E-01  0.934E-01
   0.821  0.962E-01  0.962E-01
   0.831  0.132E+00  0.132E+00
   0.841  0.124E+00  0.124E+00
   0.851  0.117E+00  0.117E+00
   0.861  0.110E+00  0.110E+00
   0.871  0.127E+00  0.127E+00
   0.881  0.141E+00  0.141E+00
   0.891  0.155E+00  0.155E+00
   0.901  0.144E+00  0.144E+00
   0.911  0.205E+00  0.205E+00
   0.921  0.239E+00  0.239E+00
   0.931  0.244E+00  0.244E+00
   0.941  0.234E+00  0.234E+00
   0.951  0.225E+00  0.225E+00
   0.961  0.215E+00  0.215E+00
   0.971  0.140E+00  0.140E+00
   0.981  0.123E+00  0.123E+00
   0.991  0.893E-01  0.893E-01
   1.001  0.972E-01  0.972E-01
   1.011  0.109E+00  0.109E+00
   1.021  0.124E+00  0.124E+00
   1.031  0.383E+00  0.383E+00
   1.041  0.645E-01  0.645E-01
   1.051  0.122E+00  0.122E+00
   1.061  0.106E+00  0.106E+00
   1.071  0.907E-01  0.907E-01
   1.081  0.771E-01  0.771E-01
   1.091  0.658E-01  0.658E-01
   1.101  0.578E-01  0.578E-01
   1.111  0.553E-01  0.553E-01
   1.121  0.484E-01  0.484E-01
   1.131  0.441E-01  0.441E-01
   1.141  0.549E-01  0.549E-01
   1.151  0.668E-01  0.668E-01
   1.161  0.777E-01  0.777E-01
   1.171  0.898E-01  0.898E-01
   1.181  0.975E-01  0.975E-01
   1.191  0.938E-01  0.938E-01
   1.201  0.911E-01  0.911E-01
   1.211  0.903E-01  0.903E-01
   1.221  0.898E-01  0.898E-01
   1.231  0.897E-01  0.897E-01
   1.241  0.898E-01  0.898E-01
   1.251  0.936E-01  0.936E-01
   1.261  0.104E+00  0.104E+00
   1.271  0.121E+00  0.121E+00
   1.281  0.132E+00  0.132E+00
   1.291  0.839E-01  0.839E-01
   1.301  0.841E-01  0.841E-01
   1.311  0.673E-01  0.673E-01
   1.321  0.553E-01  0.553E-01
   1.331  0.401E-01  0.401E-01
   1.341  0.383E-01  0.383E-01
   1.351  0.551E-01  0.551E-01
   1.361  0.103E+00  0.103E+00
   1.371  0.981E-01  0.981E-01
   1.381  0.888E-01  0.888E-01
   1.391  0.829E-01  0.829E-01
   1.401  0.784E-01  0.784E-01
   1.411  0.735E-01  0.735E-01
   1.421  0.704E-01  0.704E-01
   1.431  0.131E+00  0.131E+00
   1.441  0.167E+00  0.167E+00
   1.451  0.166E+00  0.166E+00
   1.461  0.127E+00  0.127E+00
   1.471  0.544E-01  0.544E-01
   1.481  0.298E-01  0.298E-01
   1.491  0.293E-01  0.293E-01
   1.501  0.974E-01  0.974E-01
   1.511  0.205E+00  0.205E+00
   1.521  0.214E+00  0.214E+00
   1.531  0.122E+00  0.122E+00
   1.541  0.762E-01  0.762E-01
   1.551  0.759E-01  0.759E-01
   1.561  0.895E-01  0.895E-01
   1.571  0.875E-01  0.875E-01
   1.581  0.890E-01  0.890E-01
   1.591  0.952E-01  0.952E-01
   1.601  0.104E+00  0.104E+00
   1.611  0.114E+00  0.114E+00
   1.621  0.981E-01  0.981E-01
   1.631  0.109E+00  0.109E+00
   1.641  0.123E+00  0.123E+00
   1.651  0.138E+00  0.138E+00
   1.661  0.156E+00  0.156E+00
   1.671  0.169E+00  0.169E+00
   1.681  0.180E+00  0.180E+00
   1.691  0.189E+00  0.189E+00
   1.701  0.192E+00  0.192E+00
   1.711  0.193E+00  0.193E+00
   1.721  0.194E+00  0.194E+00
   1.731  0.114E+00  0.114E+00
   1.741  0.980E-01  0.980E-01
   1.751  0.835E-01  0.835E-01
   1.761  0.702E-01  0.702E-01
   1.771  0.583E-01  0.583E-01
   1.781  0.617E-01  0.617E-01
   1.791  0.529E-01  0.529E-01
   1.801  0.436E-01  0.436E-01
   1.811  0.337E-01  0.337E-01
   1.821  0.233E-01  0.233E-01
   1.831  0.124E-01  0.124E-01
   1.841  0.795E-02  0.795E-02
   1.851  0.506E-02  0.506E-02
   1.861  0.326E-02  0.326E-02
   1.871  0.216E-02  0.216E-02
   1.881  0.129E-02  0.129E-02
   1.891  0.639E-03  0.639E-03
   1.901  0.214E-03  0.214E-03
   1.911  0.127E-04  0.127E-04
   1.921  0.000E+00  0.000E+00
