# E (eV)   ldos(E)   pdos(E)    pdos(E)    pdos(E)    pdos(E)    pdos(E)   
 -15.919  0.000E+00  0.000E+00  0.000E+00  0.000E+00  0.000E+00  0.000E+00
 -15.909  0.130E-06  0.134E-07  0.578E-08  0.250E-07  0.450E-07  0.413E-07
 -15.899  0.459E-06  0.319E-07  0.231E-07  0.588E-07  0.180E-06  0.165E-06
 -15.889  0.479E-06  0.271E-07  0.254E-07  0.495E-07  0.197E-06  0.181E-06
 -15.879  0.626E-06  0.330E-07  0.344E-07  0.579E-07  0.262E-06  0.239E-06
 -15.869  0.784E-06  0.393E-07  0.443E-07  0.669E-07  0.331E-06  0.303E-06
 -15.859  0.953E-06  0.461E-07  0.548E-07  0.764E-07  0.406E-06  0.370E-06
 -15.849  0.113E-05  0.534E-07  0.661E-07  0.865E-07  0.485E-06  0.442E-06
 -15.839  0.132E-05  0.611E-07  0.780E-07  0.971E-07  0.569E-06  0.518E-06
 -15.829  0.148E-05  0.676E-07  0.884E-07  0.105E-06  0.640E-06  0.583E-06
 -15.819  0.153E-05  0.695E-07  0.917E-07  0.106E-06  0.659E-06  0.600E-06
 -15.809  0.154E-05  0.709E-07  0.934E-07  0.105E-06  0.665E-06  0.604E-06
 -15.799  0.157E-05  0.742E-07  0.963E-07  0.107E-06  0.678E-06  0.614E-06
 -15.789  0.168E-05  0.821E-07  0.104E-06  0.114E-06  0.725E-06  0.655E-06
 -15.779  0.179E-05  0.908E-07  0.112E-06  0.122E-06  0.769E-06  0.696E-06
 -15.769  0.190E-05  0.100E-06  0.120E-06  0.131E-06  0.811E-06  0.734E-06
 -15.759  0.200E-05  0.110E-06  0.128E-06  0.139E-06  0.850E-06  0.772E-06
 -15.749  0.210E-05  0.122E-06  0.136E-06  0.149E-06  0.887E-06  0.808E-06
 -15.739  0.220E-05  0.133E-06  0.144E-06  0.158E-06  0.921E-06  0.842E-06
 -15.729  0.229E-05  0.146E-06  0.152E-06  0.168E-06  0.953E-06  0.876E-06
 -15.719  0.239E-05  0.159E-06  0.160E-06  0.179E-06  0.982E-06  0.908E-06
 -15.709  0.492E-05  0.336E-06  0.326E-06  0.371E-06  0.204E-05  0.184E-05
 -15.699  0.380E-05  0.306E-06  0.252E-06  0.318E-06  0.155E-05  0.138E-05
 -15.689  0.277E-05  0.256E-06  0.180E-06  0.255E-06  0.112E-05  0.957E-06
 -15.679  0.182E-05  0.188E-06  0.111E-06  0.182E-06  0.758E-06  0.584E-06
 -15.669  0.104E-05  0.110E-06  0.512E-07  0.109E-06  0.487E-06  0.286E-06
 -15.659  0.888E-06  0.105E-06  0.401E-07  0.100E-06  0.422E-06  0.221E-06
 -15.649  0.736E-06  0.959E-07  0.304E-07  0.899E-07  0.356E-06  0.164E-06
 -15.639  0.740E-06  0.858E-07  0.314E-07  0.824E-07  0.366E-06  0.175E-06
 -15.629  0.957E-06  0.764E-07  0.471E-07  0.804E-07  0.478E-06  0.275E-06
 -15.619  0.117E-05  0.664E-07  0.642E-07  0.775E-07  0.582E-06  0.380E-06
 -15.609  0.138E-05  0.558E-07  0.825E-07  0.737E-07  0.678E-06  0.487E-06
 -15.599  0.158E-05  0.445E-07  0.102E-06  0.690E-07  0.767E-06  0.599E-06
 -15.589  0.185E-05  0.481E-07  0.124E-06  0.767E-07  0.887E-06  0.717E-06
 -15.579  0.216E-05  0.639E-07  0.147E-06  0.943E-07  0.103E-05  0.833E-06
 -15.569  0.247E-05  0.819E-07  0.169E-06  0.113E-06  0.116E-05  0.945E-06
 -15.559  0.594E-05  0.136E-06  0.589E-06  0.198E-06  0.193E-05  0.309E-05
 -15.549  0.132E-04  0.412E-06  0.123E-05  0.526E-06  0.462E-05  0.641E-05
 -15.539  0.256E-05  0.108E-06  0.177E-06  0.131E-06  0.120E-05  0.940E-06
 -15.529  0.257E-05  0.112E-06  0.175E-06  0.134E-06  0.123E-05  0.921E-06
 -15.519  0.258E-05  0.116E-06  0.174E-06  0.137E-06  0.125E-05  0.905E-06
 -15.509  0.260E-05  0.121E-06  0.173E-06  0.141E-06  0.128E-05  0.893E-06
 -15.499  0.263E-05  0.126E-06  0.174E-06  0.145E-06  0.130E-05  0.885E-06
 -15.489  0.266E-05  0.130E-06  0.175E-06  0.149E-06  0.132E-05  0.880E-06
 -15.479  0.269E-05  0.135E-06  0.176E-06  0.153E-06  0.135E-05  0.880E-06
 -15.469  0.273E-05  0.140E-06  0.179E-06  0.157E-06  0.137E-05  0.883E-06
 -15.459  0.277E-05  0.145E-06  0.182E-06  0.162E-06  0.139E-05  0.890E-06
 -15.449  0.282E-05  0.150E-06  0.187E-06  0.167E-06  0.141E-05  0.903E-06
 -15.439  0.287E-05  0.156E-06  0.192E-06  0.171E-06  0.143E-05  0.920E-06
 -15.429  0.292E-05  0.161E-06  0.198E-06  0.176E-06  0.145E-05  0.941E-06
 -15.419  0.298E-05  0.166E-06  0.205E-06  0.181E-06  0.146E-05  0.965E-06
 -15.409  0.303E-05  0.172E-06  0.213E-06  0.185E-06  0.147E-05  0.992E-06
 -15.399  0.309E-05  0.177E-06  0.221E-06  0.189E-06  0.148E-05  0.102E-05
 -15.389  0.314E-05  0.182E-06  0.231E-06  0.193E-06  0.148E-05  0.106E-05
 -15.379  0.320E-05  0.187E-06  0.241E-06  0.197E-06  0.148E-05  0.109E-05
 -15.369  0.325E-05  0.192E-06  0.252E-06  0.200E-06  0.147E-05  0.113E-05
 -15.359  0.434E-05  0.238E-06  0.354E-06  0.246E-06  0.192E-05  0.157E-05
 -15.349  0.411E-05  0.220E-06  0.343E-06  0.227E-06  0.181E-05  0.151E-05
 -15.339  0.389E-05  0.205E-06  0.331E-06  0.209E-06  0.170E-05  0.145E-05
 -15.329  0.369E-05  0.191E-06  0.319E-06  0.193E-06  0.160E-05  0.139E-05
 -15.319  0.352E-05  0.182E-06  0.308E-06  0.182E-06  0.152E-05  0.133E-05
 -15.309  0.339E-05  0.177E-06  0.299E-06  0.175E-06  0.146E-05  0.128E-05
 -15.299  0.328E-05  0.174E-06  0.290E-06  0.170E-06  0.141E-05  0.124E-05
 -15.289  0.329E-05  0.174E-06  0.295E-06  0.168E-06  0.141E-05  0.125E-05
 -15.279  0.332E-05  0.174E-06  0.302E-06  0.166E-06  0.141E-05  0.127E-05
 -15.269  0.334E-05  0.174E-06  0.308E-06  0.164E-06  0.141E-05  0.129E-05
 -15.259  0.337E-05  0.174E-06  0.315E-06  0.161E-06  0.141E-05  0.131E-05
 -15.249  0.339E-05  0.173E-06  0.322E-06  0.158E-06  0.141E-05  0.132E-05
 -15.239  0.341E-05  0.173E-06  0.329E-06  0.155E-06  0.141E-05  0.134E-05
 -15.229  0.343E-05  0.172E-06  0.336E-06  0.152E-06  0.141E-05  0.136E-05
 -15.219  0.345E-05  0.171E-06  0.343E-06  0.148E-06  0.141E-05  0.138E-05
 -15.209  0.347E-05  0.170E-06  0.350E-06  0.144E-06  0.140E-05  0.140E-05
 -15.199  0.278E-05  0.120E-06  0.300E-06  0.905E-07  0.108E-05  0.119E-05
 -15.189  0.280E-05  0.122E-06  0.303E-06  0.916E-07  0.108E-05  0.120E-05
 -15.179  0.282E-05  0.123E-06  0.307E-06  0.924E-07  0.109E-05  0.120E-05
 -15.169  0.284E-05  0.125E-06  0.310E-06  0.930E-07  0.110E-05  0.121E-05
 -15.159  0.286E-05  0.126E-06  0.314E-06  0.934E-07  0.110E-05  0.122E-05
 -15.149  0.288E-05  0.128E-06  0.318E-06  0.935E-07  0.111E-05  0.123E-05
 -15.139  0.275E-05  0.123E-06  0.304E-06  0.908E-07  0.106E-05  0.117E-05
 -15.129  0.275E-05  0.134E-06  0.287E-06  0.119E-06  0.111E-05  0.110E-05
 -15.119  0.275E-05  0.144E-06  0.269E-06  0.147E-06  0.116E-05  0.103E-05
 -15.109  0.285E-05  0.156E-06  0.265E-06  0.174E-06  0.124E-05  0.101E-05
 -15.099  0.285E-05  0.159E-06  0.260E-06  0.182E-06  0.126E-05  0.992E-06
 -15.089  0.285E-05  0.162E-06  0.256E-06  0.190E-06  0.127E-05  0.971E-06
 -15.079  0.285E-05  0.164E-06  0.251E-06  0.199E-06  0.129E-05  0.950E-06
 -15.069  0.285E-05  0.166E-06  0.246E-06  0.207E-06  0.131E-05  0.929E-06
 -15.059  0.285E-05  0.167E-06  0.241E-06  0.214E-06  0.132E-05  0.908E-06
 -15.049  0.285E-05  0.168E-06  0.236E-06  0.222E-06  0.134E-05  0.887E-06
 -15.039  0.285E-05  0.168E-06  0.230E-06  0.229E-06  0.136E-05  0.865E-06
 -15.029  0.340E-05  0.195E-06  0.298E-06  0.245E-06  0.154E-05  0.112E-05
 -15.019  0.494E-05  0.295E-06  0.395E-06  0.404E-06  0.236E-05  0.148E-05
 -15.009  0.468E-05  0.282E-06  0.381E-06  0.377E-06  0.222E-05  0.142E-05
 -14.999  0.441E-05  0.268E-06  0.365E-06  0.351E-06  0.208E-05  0.135E-05
 -14.989  0.415E-05  0.254E-06  0.349E-06  0.326E-06  0.195E-05  0.128E-05
 -14.979  0.389E-05  0.238E-06  0.331E-06  0.303E-06  0.182E-05  0.121E-05
 -14.969  0.364E-05  0.222E-06  0.312E-06  0.280E-06  0.169E-05  0.113E-05
 -14.959  0.338E-05  0.204E-06  0.293E-06  0.259E-06  0.157E-05  0.106E-05
 -14.949  0.312E-05  0.186E-06  0.272E-06  0.238E-06  0.145E-05  0.979E-06
 -14.939  0.287E-05  0.167E-06  0.250E-06  0.219E-06  0.134E-05  0.899E-06
 -14.929  0.262E-05  0.148E-06  0.227E-06  0.201E-06  0.123E-05  0.818E-06
 -14.919  0.237E-05  0.127E-06  0.203E-06  0.185E-06  0.112E-05  0.735E-06
 -14.909  0.214E-05  0.107E-06  0.178E-06  0.172E-06  0.103E-05  0.649E-06
 -14.899  0.201E-05  0.957E-07  0.164E-06  0.164E-06  0.982E-06  0.603E-06
 -14.889  0.195E-05  0.911E-07  0.161E-06  0.157E-06  0.949E-06  0.590E-06
 -14.879  0.189E-05  0.866E-07  0.158E-06  0.150E-06  0.915E-06  0.576E-06
 -14.869  0.190E-05  0.824E-07  0.165E-06  0.144E-06  0.898E-06  0.607E-06
 -14.859  0.438E-05  0.192E-06  0.427E-06  0.293E-06  0.197E-05  0.149E-05
 -14.849  0.388E-05  0.162E-06  0.364E-06  0.270E-06  0.177E-05  0.131E-05
 -14.839  0.333E-05  0.132E-06  0.304E-06  0.238E-06  0.153E-05  0.112E-05
 -14.829  0.273E-05  0.102E-06  0.247E-06  0.195E-06  0.125E-05  0.931E-06
 -14.819  0.208E-05  0.733E-07  0.194E-06  0.143E-06  0.931E-06  0.740E-06
 -14.809  0.138E-05  0.447E-07  0.144E-06  0.809E-07  0.567E-06  0.546E-06
 -14.799  0.143E-05  0.495E-07  0.160E-06  0.756E-07  0.556E-06  0.590E-06
 -14.789  0.164E-05  0.612E-07  0.189E-06  0.822E-07  0.617E-06  0.687E-06
 -14.779  0.185E-05  0.729E-07  0.219E-06  0.892E-07  0.678E-06  0.786E-06
 -14.769  0.206E-05  0.846E-07  0.249E-06  0.968E-07  0.741E-06  0.889E-06
 -14.759  0.228E-05  0.963E-07  0.279E-06  0.105E-06  0.804E-06  0.995E-06
 -14.749  0.250E-05  0.108E-06  0.310E-06  0.113E-06  0.868E-06  0.110E-05
 -14.739  0.273E-05  0.120E-06  0.341E-06  0.122E-06  0.933E-06  0.121E-05
 -14.729  0.296E-05  0.131E-06  0.372E-06  0.132E-06  0.999E-06  0.133E-05
 -14.719  0.320E-05  0.143E-06  0.404E-06  0.142E-06  0.107E-05  0.145E-05
 -14.709  0.344E-05  0.155E-06  0.435E-06  0.152E-06  0.113E-05  0.157E-05
 -14.699  0.210E-05  0.104E-06  0.211E-06  0.145E-06  0.918E-06  0.720E-06
 -14.689  0.177E-05  0.829E-07  0.199E-06  0.104E-06  0.706E-06  0.682E-06
 -14.679  0.178E-05  0.829E-07  0.199E-06  0.106E-06  0.712E-06  0.681E-06
 -14.669  0.179E-05  0.828E-07  0.198E-06  0.108E-06  0.718E-06  0.680E-06
 -14.659  0.179E-05  0.826E-07  0.198E-06  0.110E-06  0.723E-06  0.679E-06
 -14.649  0.180E-05  0.825E-07  0.197E-06  0.111E-06  0.728E-06  0.678E-06
 -14.639  0.180E-05  0.824E-07  0.197E-06  0.113E-06  0.733E-06  0.678E-06
 -14.629  0.181E-05  0.822E-07  0.197E-06  0.114E-06  0.738E-06  0.677E-06
 -14.619  0.181E-05  0.820E-07  0.196E-06  0.116E-06  0.743E-06  0.676E-06
 -14.609  0.182E-05  0.818E-07  0.196E-06  0.117E-06  0.747E-06  0.675E-06
 -14.599  0.182E-05  0.816E-07  0.196E-06  0.118E-06  0.752E-06  0.674E-06
 -14.589  0.183E-05  0.814E-07  0.195E-06  0.120E-06  0.756E-06  0.674E-06
 -14.579  0.183E-05  0.811E-07  0.195E-06  0.121E-06  0.760E-06  0.673E-06
 -14.569  0.183E-05  0.808E-07  0.194E-06  0.122E-06  0.763E-06  0.672E-06
 -14.559  0.226E-05  0.114E-06  0.209E-06  0.141E-06  0.107E-05  0.729E-06
 -14.549  0.454E-05  0.216E-06  0.417E-06  0.275E-06  0.223E-05  0.140E-05
 -14.539  0.824E-05  0.313E-06  0.866E-06  0.530E-06  0.370E-05  0.283E-05
 -14.529  0.202E-05  0.842E-07  0.212E-06  0.139E-06  0.843E-06  0.742E-06
 -14.519  0.201E-05  0.827E-07  0.211E-06  0.139E-06  0.836E-06  0.742E-06
 -14.509  0.200E-05  0.813E-07  0.211E-06  0.138E-06  0.830E-06  0.741E-06
 -14.499  0.199E-05  0.799E-07  0.211E-06  0.138E-06  0.825E-06  0.739E-06
 -14.489  0.198E-05  0.787E-07  0.210E-06  0.137E-06  0.819E-06  0.738E-06
 -14.479  0.197E-05  0.774E-07  0.210E-06  0.137E-06  0.814E-06  0.735E-06
 -14.469  0.196E-05  0.762E-07  0.209E-06  0.136E-06  0.809E-06  0.732E-06
 -14.459  0.195E-05  0.751E-07  0.208E-06  0.136E-06  0.804E-06  0.729E-06
 -14.449  0.197E-05  0.752E-07  0.209E-06  0.138E-06  0.817E-06  0.732E-06
 -14.439  0.200E-05  0.756E-07  0.211E-06  0.141E-06  0.835E-06  0.737E-06
 -14.429  0.203E-05  0.759E-07  0.213E-06  0.144E-06  0.852E-06  0.743E-06
 -14.419  0.206E-05  0.761E-07  0.215E-06  0.147E-06  0.868E-06  0.750E-06
 -14.409  0.208E-05  0.762E-07  0.217E-06  0.150E-06  0.882E-06  0.758E-06
 -14.399  0.211E-05  0.761E-07  0.220E-06  0.152E-06  0.896E-06  0.767E-06
 -14.389  0.214E-05  0.760E-07  0.222E-06  0.154E-06  0.909E-06  0.777E-06
 -14.379  0.217E-05  0.758E-07  0.225E-06  0.156E-06  0.920E-06  0.788E-06
 -14.369  0.219E-05  0.755E-07  0.229E-06  0.157E-06  0.931E-06  0.800E-06
 -14.359  0.222E-05  0.751E-07  0.232E-06  0.158E-06  0.941E-06  0.813E-06
 -14.349  0.225E-05  0.746E-07  0.236E-06  0.159E-06  0.949E-06  0.827E-06
 -14.339  0.227E-05  0.739E-07  0.240E-06  0.160E-06  0.957E-06  0.842E-06
 -14.329  0.228E-05  0.722E-07  0.243E-06  0.158E-06  0.952E-06  0.852E-06
 -14.319  0.228E-05  0.703E-07  0.245E-06  0.157E-06  0.948E-06  0.861E-06
 -14.309  0.229E-05  0.683E-07  0.248E-06  0.155E-06  0.944E-06  0.874E-06
 -14.299  0.231E-05  0.664E-07  0.252E-06  0.153E-06  0.943E-06  0.894E-06
 -14.289  0.233E-05  0.643E-07  0.256E-06  0.152E-06  0.943E-06  0.913E-06
 -14.279  0.235E-05  0.621E-07  0.260E-06  0.150E-06  0.943E-06  0.931E-06
 -14.269  0.236E-05  0.596E-07  0.263E-06  0.149E-06  0.944E-06  0.949E-06
 -14.259  0.238E-05  0.571E-07  0.267E-06  0.147E-06  0.945E-06  0.966E-06
 -14.249  0.240E-05  0.544E-07  0.270E-06  0.145E-06  0.948E-06  0.982E-06
 -14.239  0.242E-05  0.515E-07  0.273E-06  0.144E-06  0.951E-06  0.998E-06
 -14.229  0.243E-05  0.484E-07  0.276E-06  0.142E-06  0.955E-06  0.101E-05
 -14.219  0.293E-05  0.530E-07  0.334E-06  0.170E-06  0.117E-05  0.120E-05
 -14.209  0.245E-05  0.407E-07  0.290E-06  0.129E-06  0.890E-06  0.110E-05
 -14.199  0.198E-05  0.311E-07  0.240E-06  0.969E-07  0.659E-06  0.956E-06
 -14.189  0.154E-05  0.243E-07  0.184E-06  0.728E-07  0.480E-06  0.777E-06
 -14.179  0.111E-05  0.202E-07  0.123E-06  0.570E-07  0.353E-06  0.560E-06
 -14.169  0.738E-06  0.190E-07  0.613E-07  0.501E-07  0.283E-06  0.324E-06
 -14.159  0.191E-05  0.440E-07  0.876E-07  0.176E-06  0.114E-05  0.467E-06
 -14.149  0.288E-05  0.693E-07  0.139E-06  0.264E-06  0.166E-05  0.740E-06
 -14.139  0.290E-05  0.701E-07  0.152E-06  0.262E-06  0.163E-05  0.782E-06
 -14.129  0.269E-05  0.639E-07  0.148E-06  0.242E-06  0.150E-05  0.735E-06
 -14.119  0.248E-05  0.580E-07  0.143E-06  0.221E-06  0.137E-05  0.688E-06
 -14.109  0.226E-05  0.523E-07  0.138E-06  0.200E-06  0.123E-05  0.643E-06
 -14.099  0.205E-05  0.468E-07  0.132E-06  0.179E-06  0.109E-05  0.598E-06
 -14.089  0.183E-05  0.416E-07  0.125E-06  0.158E-06  0.951E-06  0.554E-06
 -14.079  0.161E-05  0.367E-07  0.117E-06  0.136E-06  0.808E-06  0.511E-06
 -14.069  0.691E-06  0.159E-07  0.510E-07  0.610E-07  0.347E-06  0.216E-06
 -14.059  0.725E-06  0.159E-07  0.528E-07  0.639E-07  0.368E-06  0.224E-06
 -14.049  0.759E-06  0.160E-07  0.546E-07  0.666E-07  0.388E-06  0.234E-06
 -14.039  0.793E-06  0.161E-07  0.566E-07  0.690E-07  0.407E-06  0.245E-06
 -14.029  0.826E-06  0.162E-07  0.587E-07  0.713E-07  0.423E-06  0.257E-06
 -14.019  0.859E-06  0.163E-07  0.609E-07  0.734E-07  0.439E-06  0.269E-06
 -14.009  0.891E-06  0.164E-07  0.632E-07  0.753E-07  0.453E-06  0.283E-06
 -13.999  0.923E-06  0.165E-07  0.657E-07  0.769E-07  0.466E-06  0.298E-06
 -13.989  0.954E-06  0.166E-07  0.682E-07  0.783E-07  0.477E-06  0.314E-06
 -13.979  0.985E-06  0.167E-07  0.709E-07  0.796E-07  0.486E-06  0.331E-06
 -13.969  0.101E-05  0.168E-07  0.737E-07  0.806E-07  0.495E-06  0.349E-06
 -13.959  0.104E-05  0.169E-07  0.766E-07  0.814E-07  0.501E-06  0.368E-06
 -13.949  0.107E-05  0.170E-07  0.796E-07  0.820E-07  0.507E-06  0.388E-06
 -13.939  0.110E-05  0.172E-07  0.828E-07  0.824E-07  0.511E-06  0.409E-06
 -13.929  0.113E-05  0.173E-07  0.860E-07  0.826E-07  0.513E-06  0.431E-06
 -13.919  0.265E-05  0.487E-07  0.184E-06  0.194E-06  0.111E-05  0.111E-05
 -13.909  0.268E-05  0.453E-07  0.202E-06  0.188E-06  0.111E-05  0.113E-05
 -13.899  0.271E-05  0.417E-07  0.223E-06  0.180E-06  0.110E-05  0.116E-05
 -13.889  0.273E-05  0.381E-07  0.246E-06  0.171E-06  0.108E-05  0.120E-05
 -13.879  0.275E-05  0.343E-07  0.273E-06  0.159E-06  0.104E-05  0.124E-05
 -13.869  0.277E-05  0.305E-07  0.302E-06  0.146E-06  0.995E-06  0.129E-05
 -13.859  0.226E-05  0.241E-07  0.268E-06  0.106E-06  0.731E-06  0.113E-05
 -13.849  0.153E-05  0.172E-07  0.172E-06  0.735E-07  0.503E-06  0.768E-06
 -13.839  0.125E-05  0.143E-07  0.107E-06  0.765E-07  0.523E-06  0.529E-06
 -13.829  0.157E-05  0.159E-07  0.113E-06  0.111E-06  0.772E-06  0.559E-06
 -13.819  0.191E-05  0.179E-07  0.123E-06  0.143E-06  0.996E-06  0.626E-06
 -13.809  0.226E-05  0.202E-07  0.138E-06  0.172E-06  0.119E-05  0.731E-06
 -13.799  0.262E-05  0.230E-07  0.158E-06  0.199E-06  0.137E-05  0.873E-06
 -13.789  0.300E-05  0.262E-07  0.182E-06  0.222E-06  0.151E-05  0.105E-05
 -13.779  0.339E-05  0.297E-07  0.212E-06  0.243E-06  0.164E-05  0.127E-05
 -13.769  0.760E-05  0.682E-07  0.493E-06  0.529E-06  0.348E-05  0.303E-05
 -13.759  0.406E-05  0.354E-07  0.271E-06  0.275E-06  0.181E-05  0.167E-05
 -13.749  0.248E-05  0.218E-07  0.196E-06  0.162E-06  0.110E-05  0.999E-06
 -13.739  0.224E-05  0.188E-07  0.177E-06  0.145E-06  0.982E-06  0.920E-06
 -13.729  0.201E-05  0.162E-07  0.160E-06  0.129E-06  0.873E-06  0.837E-06
 -13.719  0.180E-05  0.137E-07  0.144E-06  0.114E-06  0.774E-06  0.751E-06
 -13.709  0.159E-05  0.125E-07  0.129E-06  0.102E-06  0.687E-06  0.662E-06
 -13.699  0.140E-05  0.115E-07  0.116E-06  0.901E-07  0.612E-06  0.570E-06
 -13.689  0.124E-05  0.107E-07  0.105E-06  0.817E-07  0.562E-06  0.480E-06
 -13.679  0.111E-05  0.104E-07  0.961E-07  0.759E-07  0.534E-06  0.397E-06
 -13.669  0.111E-05  0.110E-07  0.956E-07  0.764E-07  0.534E-06  0.397E-06
 -13.659  0.112E-05  0.117E-07  0.952E-07  0.772E-07  0.536E-06  0.400E-06
 -13.649  0.113E-05  0.123E-07  0.948E-07  0.781E-07  0.539E-06  0.405E-06
 -13.639  0.117E-05  0.159E-07  0.964E-07  0.848E-07  0.545E-06  0.429E-06
 -13.629  0.122E-05  0.194E-07  0.981E-07  0.914E-07  0.555E-06  0.457E-06
 -13.619  0.128E-05  0.225E-07  0.998E-07  0.981E-07  0.572E-06  0.487E-06
 -13.609  0.135E-05  0.253E-07  0.101E-06  0.105E-06  0.593E-06  0.521E-06
 -13.599  0.142E-05  0.278E-07  0.103E-06  0.112E-06  0.620E-06  0.557E-06
 -13.589  0.150E-05  0.301E-07  0.105E-06  0.118E-06  0.652E-06  0.596E-06
 -13.579  0.159E-05  0.320E-07  0.107E-06  0.125E-06  0.689E-06  0.639E-06
 -13.569  0.169E-05  0.337E-07  0.109E-06  0.132E-06  0.731E-06  0.684E-06
 -13.559  0.180E-05  0.350E-07  0.110E-06  0.139E-06  0.779E-06  0.733E-06
 -13.549  0.191E-05  0.361E-07  0.112E-06  0.146E-06  0.831E-06  0.785E-06
 -13.539  0.203E-05  0.369E-07  0.114E-06  0.153E-06  0.889E-06  0.839E-06
 -13.529  0.216E-05  0.373E-07  0.116E-06  0.160E-06  0.952E-06  0.897E-06
 -13.519  0.230E-05  0.375E-07  0.118E-06  0.167E-06  0.102E-05  0.957E-06
 -13.509  0.188E-05  0.273E-07  0.104E-06  0.133E-06  0.853E-06  0.761E-06
 -13.499  0.181E-05  0.258E-07  0.102E-06  0.127E-06  0.825E-06  0.728E-06
 -13.489  0.177E-05  0.247E-07  0.104E-06  0.123E-06  0.805E-06  0.717E-06
 -13.479  0.447E-05  0.310E-07  0.227E-06  0.362E-06  0.257E-05  0.128E-05
 -13.469  0.156E-05  0.219E-07  0.893E-07  0.108E-06  0.719E-06  0.619E-06
 -13.459  0.135E-05  0.203E-07  0.741E-07  0.934E-07  0.618E-06  0.540E-06
 -13.449  0.135E-05  0.197E-07  0.746E-07  0.932E-07  0.624E-06  0.538E-06
 -13.439  0.136E-05  0.194E-07  0.752E-07  0.938E-07  0.633E-06  0.541E-06
 -13.429  0.138E-05  0.191E-07  0.759E-07  0.951E-07  0.646E-06  0.547E-06
 -13.419  0.141E-05  0.188E-07  0.764E-07  0.965E-07  0.660E-06  0.554E-06
 -13.409  0.143E-05  0.185E-07  0.769E-07  0.980E-07  0.674E-06  0.558E-06
 -13.399  0.144E-05  0.182E-07  0.774E-07  0.995E-07  0.688E-06  0.561E-06
 -13.389  0.146E-05  0.179E-07  0.780E-07  0.101E-06  0.702E-06  0.562E-06
 -13.379  0.148E-05  0.175E-07  0.785E-07  0.103E-06  0.717E-06  0.561E-06
 -13.369  0.149E-05  0.172E-07  0.778E-07  0.104E-06  0.733E-06  0.555E-06
 -13.359  0.149E-05  0.169E-07  0.762E-07  0.105E-06  0.747E-06  0.542E-06
 -13.349  0.148E-05  0.165E-07  0.744E-07  0.105E-06  0.761E-06  0.527E-06
 -13.339  0.148E-05  0.163E-07  0.726E-07  0.106E-06  0.777E-06  0.511E-06
 -13.329  0.151E-05  0.166E-07  0.712E-07  0.109E-06  0.806E-06  0.509E-06
 -13.319  0.154E-05  0.170E-07  0.696E-07  0.113E-06  0.834E-06  0.506E-06
 -13.309  0.157E-05  0.174E-07  0.679E-07  0.116E-06  0.862E-06  0.503E-06
 -13.299  0.159E-05  0.179E-07  0.660E-07  0.118E-06  0.890E-06  0.501E-06
 -13.289  0.162E-05  0.183E-07  0.640E-07  0.121E-06  0.917E-06  0.497E-06
 -13.279  0.164E-05  0.188E-07  0.619E-07  0.124E-06  0.944E-06  0.494E-06
 -13.269  0.204E-05  0.262E-07  0.690E-07  0.154E-06  0.112E-05  0.677E-06
 -13.259  0.207E-05  0.273E-07  0.672E-07  0.156E-06  0.113E-05  0.687E-06
 -13.249  0.209E-05  0.283E-07  0.658E-07  0.157E-06  0.114E-05  0.697E-06
 -13.239  0.211E-05  0.293E-07  0.646E-07  0.158E-06  0.115E-05  0.708E-06
 -13.229  0.213E-05  0.302E-07  0.637E-07  0.159E-06  0.116E-05  0.719E-06
 -13.219  0.216E-05  0.311E-07  0.631E-07  0.160E-06  0.117E-05  0.730E-06
 -13.209  0.218E-05  0.319E-07  0.629E-07  0.160E-06  0.118E-05  0.743E-06
 -13.199  0.219E-05  0.326E-07  0.629E-07  0.160E-06  0.118E-05  0.755E-06
 -13.189  0.221E-05  0.333E-07  0.633E-07  0.160E-06  0.119E-05  0.768E-06
 -13.179  0.223E-05  0.340E-07  0.639E-07  0.159E-06  0.119E-05  0.782E-06
 -13.169  0.225E-05  0.345E-07  0.649E-07  0.159E-06  0.119E-05  0.795E-06
 -13.159  0.227E-05  0.351E-07  0.669E-07  0.158E-06  0.120E-05  0.813E-06
 -13.149  0.232E-05  0.355E-07  0.717E-07  0.160E-06  0.122E-05  0.839E-06
 -13.139  0.339E-05  0.461E-07  0.112E-06  0.214E-06  0.177E-05  0.125E-05
 -13.129  0.436E-05  0.535E-07  0.205E-06  0.252E-06  0.209E-05  0.176E-05
 -13.119  0.523E-05  0.576E-07  0.351E-06  0.273E-06  0.217E-05  0.238E-05
 -13.109  0.414E-05  0.528E-07  0.231E-06  0.237E-06  0.186E-05  0.176E-05
 -13.099  0.368E-05  0.524E-07  0.164E-06  0.228E-06  0.179E-05  0.145E-05
 -13.089  0.312E-05  0.488E-07  0.127E-06  0.188E-06  0.146E-05  0.129E-05
 -13.079  0.246E-05  0.420E-07  0.121E-06  0.118E-06  0.903E-06  0.128E-05
 -13.069  0.237E-05  0.417E-07  0.112E-06  0.106E-06  0.840E-06  0.127E-05
 -13.059  0.206E-05  0.393E-07  0.796E-07  0.894E-07  0.748E-06  0.110E-05
 -13.049  0.174E-05  0.364E-07  0.522E-07  0.728E-07  0.624E-06  0.952E-06
 -13.039  0.156E-05  0.348E-07  0.302E-07  0.668E-07  0.601E-06  0.830E-06
 -13.029  0.149E-05  0.339E-07  0.136E-07  0.671E-07  0.642E-06  0.730E-06
 -13.019  0.734E-07  0.267E-08  0.175E-08  0.270E-08  0.665E-08  0.596E-07
 -13.009  0.109E-06  0.373E-08  0.358E-08  0.406E-08  0.813E-08  0.900E-07
 -12.999  0.229E-06  0.673E-08  0.108E-07  0.891E-08  0.157E-07  0.187E-06
 -12.989  0.363E-06  0.101E-07  0.179E-07  0.174E-07  0.301E-07  0.288E-06
 -12.979  0.544E-06  0.146E-07  0.249E-07  0.380E-07  0.649E-07  0.402E-06
 -12.969  0.758E-06  0.196E-07  0.318E-07  0.580E-07  0.126E-06  0.523E-06
 -12.959  0.101E-05  0.252E-07  0.386E-07  0.776E-07  0.212E-06  0.653E-06
 -12.949  0.142E-05  0.352E-07  0.504E-07  0.102E-06  0.343E-06  0.893E-06
 -12.939  0.192E-05  0.466E-07  0.639E-07  0.130E-06  0.522E-06  0.116E-05
 -12.929  0.245E-05  0.584E-07  0.788E-07  0.158E-06  0.730E-06  0.142E-05
 -12.919  0.302E-05  0.708E-07  0.949E-07  0.188E-06  0.968E-06  0.170E-05
 -12.909  0.399E-05  0.963E-07  0.122E-06  0.230E-06  0.129E-05  0.226E-05
 -12.899  0.583E-05  0.128E-06  0.138E-06  0.326E-06  0.230E-05  0.294E-05
 -12.889  0.427E-05  0.816E-07  0.145E-06  0.265E-06  0.180E-05  0.198E-05
 -12.879  0.416E-05  0.736E-07  0.151E-06  0.266E-06  0.184E-05  0.183E-05
 -12.869  0.401E-05  0.661E-07  0.155E-06  0.265E-06  0.184E-05  0.169E-05
 -12.859  0.381E-05  0.592E-07  0.156E-06  0.261E-06  0.178E-05  0.155E-05
 -12.849  0.356E-05  0.529E-07  0.154E-06  0.254E-06  0.167E-05  0.143E-05
 -12.839  0.337E-05  0.487E-07  0.154E-06  0.249E-06  0.157E-05  0.134E-05
 -12.829  0.370E-05  0.520E-07  0.178E-06  0.272E-06  0.176E-05  0.144E-05
 -12.819  0.401E-05  0.544E-07  0.204E-06  0.295E-06  0.193E-05  0.152E-05
 -12.809  0.430E-05  0.559E-07  0.231E-06  0.319E-06  0.209E-05  0.160E-05
 -12.799  0.329E-05  0.431E-07  0.191E-06  0.271E-06  0.151E-05  0.127E-05
 -12.789  0.316E-05  0.409E-07  0.196E-06  0.273E-06  0.142E-05  0.123E-05
 -12.779  0.456E-05  0.673E-07  0.417E-06  0.381E-06  0.137E-05  0.233E-05
 -12.769  0.391E-05  0.933E-07  0.203E-06  0.441E-06  0.122E-05  0.196E-05
 -12.759  0.224E-05  0.409E-07  0.119E-06  0.218E-06  0.944E-06  0.922E-06
 -12.749  0.206E-05  0.370E-07  0.110E-06  0.201E-06  0.855E-06  0.855E-06
 -12.739  0.187E-05  0.333E-07  0.101E-06  0.185E-06  0.761E-06  0.785E-06
 -12.729  0.166E-05  0.299E-07  0.917E-07  0.168E-06  0.662E-06  0.712E-06
 -12.719  0.145E-05  0.267E-07  0.813E-07  0.152E-06  0.557E-06  0.635E-06
 -12.709  0.123E-05  0.237E-07  0.703E-07  0.135E-06  0.447E-06  0.555E-06
 -12.699  0.100E-05  0.210E-07  0.587E-07  0.119E-06  0.331E-06  0.472E-06
 -12.689  0.791E-06  0.186E-07  0.482E-07  0.104E-06  0.227E-06  0.394E-06
 -12.679  0.772E-06  0.177E-07  0.500E-07  0.103E-06  0.236E-06  0.365E-06
 -12.669  0.753E-06  0.170E-07  0.521E-07  0.104E-06  0.247E-06  0.334E-06
 -12.659  0.737E-06  0.164E-07  0.546E-07  0.105E-06  0.259E-06  0.302E-06
 -12.649  0.726E-06  0.161E-07  0.575E-07  0.108E-06  0.273E-06  0.272E-06
 -12.639  0.770E-06  0.166E-07  0.607E-07  0.114E-06  0.291E-06  0.288E-06
 -12.629  0.905E-06  0.264E-07  0.658E-07  0.153E-06  0.325E-06  0.335E-06
 -12.619  0.110E-05  0.360E-07  0.756E-07  0.196E-06  0.387E-06  0.407E-06
 -12.609  0.135E-05  0.435E-07  0.900E-07  0.238E-06  0.478E-06  0.499E-06
 -12.599  0.165E-05  0.490E-07  0.109E-06  0.279E-06  0.597E-06  0.612E-06
 -12.589  0.200E-05  0.525E-07  0.133E-06  0.319E-06  0.745E-06  0.747E-06
 -12.579  0.240E-05  0.541E-07  0.161E-06  0.358E-06  0.922E-06  0.902E-06
 -12.569  0.124E-05  0.216E-07  0.951E-07  0.175E-06  0.480E-06  0.465E-06
 -12.559  0.128E-05  0.214E-07  0.103E-06  0.179E-06  0.485E-06  0.495E-06
 -12.549  0.132E-05  0.210E-07  0.113E-06  0.181E-06  0.481E-06  0.529E-06
 -12.539  0.136E-05  0.202E-07  0.125E-06  0.181E-06  0.467E-06  0.567E-06
 -12.529  0.138E-05  0.191E-07  0.137E-06  0.178E-06  0.444E-06  0.602E-06
 -12.519  0.152E-05  0.210E-07  0.135E-06  0.212E-06  0.561E-06  0.589E-06
 -12.509  0.156E-05  0.209E-07  0.133E-06  0.225E-06  0.602E-06  0.574E-06
 -12.499  0.151E-05  0.201E-07  0.125E-06  0.225E-06  0.607E-06  0.535E-06
 -12.489  0.147E-05  0.194E-07  0.117E-06  0.226E-06  0.614E-06  0.494E-06
 -12.479  0.143E-05  0.189E-07  0.107E-06  0.228E-06  0.625E-06  0.451E-06
 -12.469  0.139E-05  0.186E-07  0.971E-07  0.231E-06  0.639E-06  0.407E-06
 -12.459  0.136E-05  0.185E-07  0.862E-07  0.234E-06  0.657E-06  0.360E-06
 -12.449  0.132E-05  0.186E-07  0.744E-07  0.238E-06  0.677E-06  0.312E-06
 -12.439  0.129E-05  0.189E-07  0.619E-07  0.242E-06  0.701E-06  0.261E-06
 -12.429  0.127E-05  0.195E-07  0.522E-07  0.249E-06  0.728E-06  0.222E-06
 -12.419  0.127E-05  0.190E-07  0.556E-07  0.248E-06  0.712E-06  0.232E-06
 -12.409  0.126E-05  0.184E-07  0.598E-07  0.245E-06  0.691E-06  0.245E-06
 -12.399  0.125E-05  0.175E-07  0.648E-07  0.242E-06  0.665E-06  0.259E-06
 -12.389  0.123E-05  0.165E-07  0.705E-07  0.237E-06  0.635E-06  0.275E-06
 -12.379  0.122E-05  0.153E-07  0.771E-07  0.231E-06  0.601E-06  0.294E-06
 -12.369  0.120E-05  0.139E-07  0.845E-07  0.225E-06  0.562E-06  0.315E-06
 -12.359  0.118E-05  0.124E-07  0.926E-07  0.217E-06  0.519E-06  0.338E-06
 -12.349  0.165E-05  0.165E-07  0.133E-06  0.305E-06  0.713E-06  0.481E-06
 -12.339  0.134E-05  0.130E-07  0.108E-06  0.251E-06  0.581E-06  0.389E-06
 -12.329  0.104E-05  0.976E-08  0.836E-07  0.197E-06  0.448E-06  0.298E-06
 -12.319  0.730E-06  0.667E-08  0.590E-07  0.140E-06  0.315E-06  0.209E-06
 -12.309  0.424E-06  0.376E-08  0.343E-07  0.826E-07  0.183E-06  0.121E-06
 -12.299  0.118E-06  0.102E-08  0.958E-08  0.234E-07  0.511E-07  0.334E-07
 -12.289  0.000E+00  0.000E+00  0.000E+00  0.000E+00  0.000E+00  0.000E+00
 -12.279  0.000E+00  0.000E+00  0.000E+00  0.000E+00  0.000E+00  0.000E+00
 -12.269  0.000E+00  0.000E+00  0.000E+00  0.000E+00  0.000E+00  0.000E+00
 -12.259  0.000E+00  0.000E+00  0.000E+00  0.000E+00  0.000E+00  0.000E+00
 -12.249  0.000E+00  0.000E+00  0.000E+00  0.000E+00  0.000E+00  0.000E+00
 -12.239  0.000E+00  0.000E+00  0.000E+00  0.000E+00  0.000E+00  0.000E+00
 -12.229  0.000E+00  0.000E+00  0.000E+00  0.000E+00  0.000E+00  0.000E+00
 -12.219  0.000E+00  0.000E+00  0.000E+00  0.000E+00  0.000E+00  0.000E+00
 -12.209  0.000E+00  0.000E+00  0.000E+00  0.000E+00  0.000E+00  0.000E+00
 -12.199  0.000E+00  0.000E+00  0.000E+00  0.000E+00  0.000E+00  0.000E+00
 -12.189  0.000E+00  0.000E+00  0.000E+00  0.000E+00  0.000E+00  0.000E+00
 -12.179  0.000E+00  0.000E+00  0.000E+00  0.000E+00  0.000E+00  0.000E+00
 -12.169  0.000E+00  0.000E+00  0.000E+00  0.000E+00  0.000E+00  0.000E+00
 -12.159  0.000E+00  0.000E+00  0.000E+00  0.000E+00  0.000E+00  0.000E+00
 -12.149  0.000E+00  0.000E+00  0.000E+00  0.000E+00  0.000E+00  0.000E+00
 -12.139  0.000E+00  0.000E+00  0.000E+00  0.000E+00  0.000E+00  0.000E+00
 -12.129  0.000E+00  0.000E+00  0.000E+00  0.000E+00  0.000E+00  0.000E+00
 -12.119  0.000E+00  0.000E+00  0.000E+00  0.000E+00  0.000E+00  0.000E+00
 -12.109  0.000E+00  0.000E+00  0.000E+00  0.000E+00  0.000E+00  0.000E+00
 -12.099  0.000E+00  0.000E+00  0.000E+00  0.000E+00  0.000E+00  0.000E+00
 -12.089  0.000E+00  0.000E+00  0.000E+00  0.000E+00  0.000E+00  0.000E+00
 -12.079  0.000E+00  0.000E+00  0.000E+00  0.000E+00  0.000E+00  0.000E+00
 -12.069  0.000E+00  0.000E+00  0.000E+00  0.000E+00  0.000E+00  0.000E+00
 -12.059  0.000E+00  0.000E+00  0.000E+00  0.000E+00  0.000E+00  0.000E+00
 -12.049  0.000E+00  0.000E+00  0.000E+00  0.000E+00  0.000E+00  0.000E+00
 -12.039  0.000E+00  0.000E+00  0.000E+00  0.000E+00  0.000E+00  0.000E+00
 -12.029  0.000E+00  0.000E+00  0.000E+00  0.000E+00  0.000E+00  0.000E+00
 -12.019  0.000E+00  0.000E+00  0.000E+00  0.000E+00  0.000E+00  0.000E+00
 -12.009  0.000E+00  0.000E+00  0.000E+00  0.000E+00  0.000E+00  0.000E+00
 -11.999  0.161E-03  0.159E-03  0.191E-06  0.256E-06  0.708E-06  0.530E-06
 -11.989  0.493E-03  0.479E-03  0.175E-05  0.196E-05  0.546E-05  0.487E-05
 -11.979  0.835E-03  0.797E-03  0.488E-05  0.525E-05  0.147E-04  0.136E-04
 -11.969  0.551E-03  0.516E-03  0.444E-05  0.469E-05  0.131E-04  0.123E-04
 -11.959  0.586E-03  0.540E-03  0.592E-05  0.620E-05  0.173E-04  0.164E-04
 -11.949  0.622E-03  0.564E-03  0.752E-05  0.783E-05  0.217E-04  0.208E-04
 -11.939  0.658E-03  0.587E-03  0.924E-05  0.958E-05  0.266E-04  0.255E-04
 -11.929  0.695E-03  0.611E-03  0.111E-04  0.114E-04  0.317E-04  0.305E-04
 -11.919  0.733E-03  0.634E-03  0.130E-04  0.134E-04  0.371E-04  0.358E-04
 -11.909  0.772E-03  0.657E-03  0.151E-04  0.155E-04  0.429E-04  0.415E-04
 -11.899  0.765E-03  0.641E-03  0.163E-04  0.167E-04  0.462E-04  0.448E-04
 -11.889  0.737E-03  0.609E-03  0.169E-04  0.174E-04  0.479E-04  0.465E-04
 -11.879  0.708E-03  0.577E-03  0.174E-04  0.178E-04  0.490E-04  0.477E-04
 -11.869  0.701E-03  0.563E-03  0.183E-04  0.187E-04  0.512E-04  0.500E-04
 -11.859  0.724E-03  0.574E-03  0.199E-04  0.202E-04  0.555E-04  0.544E-04
 -11.849  0.748E-03  0.586E-03  0.216E-04  0.218E-04  0.596E-04  0.589E-04
 -11.839  0.773E-03  0.599E-03  0.234E-04  0.233E-04  0.637E-04  0.635E-04
 -11.829  0.799E-03  0.613E-03  0.252E-04  0.248E-04  0.677E-04  0.682E-04
 -11.819  0.826E-03  0.628E-03  0.270E-04  0.263E-04  0.716E-04  0.731E-04
 -11.809  0.854E-03  0.644E-03  0.289E-04  0.278E-04  0.755E-04  0.780E-04
 -11.799  0.883E-03  0.660E-03  0.309E-04  0.292E-04  0.792E-04  0.831E-04
 -11.789  0.913E-03  0.678E-03  0.329E-04  0.306E-04  0.829E-04  0.883E-04
 -11.779  0.944E-03  0.697E-03  0.349E-04  0.319E-04  0.865E-04  0.936E-04
 -11.769  0.187E-02  0.137E-02  0.701E-04  0.667E-04  0.180E-03  0.188E-03
 -11.759  0.162E-02  0.120E-02  0.589E-04  0.556E-04  0.150E-03  0.157E-03
 -11.749  0.135E-02  0.101E-02  0.471E-04  0.451E-04  0.121E-03  0.125E-03
 -11.739  0.106E-02  0.802E-03  0.347E-04  0.352E-04  0.944E-04  0.916E-04
 -11.729  0.742E-03  0.568E-03  0.216E-04  0.259E-04  0.694E-04  0.572E-04
 -11.719  0.456E-03  0.351E-03  0.998E-05  0.185E-04  0.494E-04  0.267E-04
 -11.709  0.417E-03  0.325E-03  0.816E-05  0.170E-04  0.454E-04  0.218E-04
 -11.699  0.381E-03  0.298E-03  0.690E-05  0.159E-04  0.425E-04  0.184E-04
 -11.689  0.393E-03  0.290E-03  0.888E-05  0.192E-04  0.513E-04  0.241E-04
 -11.679  0.404E-03  0.280E-03  0.112E-04  0.223E-04  0.598E-04  0.307E-04
 -11.669  0.415E-03  0.270E-03  0.140E-04  0.253E-04  0.678E-04  0.382E-04
 -11.659  0.426E-03  0.258E-03  0.171E-04  0.282E-04  0.754E-04  0.467E-04
 -11.649  0.436E-03  0.246E-03  0.205E-04  0.308E-04  0.827E-04  0.562E-04
 -11.639  0.446E-03  0.232E-03  0.244E-04  0.334E-04  0.895E-04  0.666E-04
 -11.629  0.467E-03  0.227E-03  0.287E-04  0.363E-04  0.973E-04  0.781E-04
 -11.619  0.545E-03  0.268E-03  0.335E-04  0.414E-04  0.111E-03  0.910E-04
 -11.609  0.100E-02  0.397E-03  0.997E-04  0.646E-04  0.170E-03  0.268E-03
 -11.599  0.197E-02  0.796E-03  0.198E-03  0.121E-03  0.320E-03  0.530E-03
 -11.589  0.304E-02  0.143E-02  0.243E-03  0.197E-03  0.523E-03  0.650E-03
 -11.579  0.677E-03  0.344E-03  0.410E-04  0.497E-04  0.133E-03  0.110E-03
 -11.569  0.692E-03  0.349E-03  0.415E-04  0.516E-04  0.138E-03  0.111E-03
 -11.559  0.706E-03  0.355E-03  0.422E-04  0.535E-04  0.143E-03  0.113E-03
 -11.549  0.722E-03  0.361E-03  0.430E-04  0.554E-04  0.148E-03  0.115E-03
 -11.539  0.738E-03  0.366E-03  0.439E-04  0.574E-04  0.153E-03  0.117E-03
 -11.529  0.754E-03  0.372E-03  0.449E-04  0.594E-04  0.158E-03  0.120E-03
 -11.519  0.772E-03  0.378E-03  0.461E-04  0.615E-04  0.164E-03  0.123E-03
 -11.509  0.789E-03  0.383E-03  0.474E-04  0.636E-04  0.169E-03  0.126E-03
 -11.499  0.808E-03  0.388E-03  0.488E-04  0.657E-04  0.175E-03  0.130E-03
 -11.489  0.827E-03  0.394E-03  0.504E-04  0.679E-04  0.180E-03  0.134E-03
 -11.479  0.848E-03  0.400E-03  0.522E-04  0.703E-04  0.186E-03  0.139E-03
 -11.469  0.870E-03  0.406E-03  0.542E-04  0.726E-04  0.192E-03  0.144E-03
 -11.459  0.892E-03  0.413E-03  0.564E-04  0.748E-04  0.198E-03  0.150E-03
 -11.449  0.914E-03  0.419E-03  0.586E-04  0.770E-04  0.203E-03  0.156E-03
 -11.439  0.936E-03  0.426E-03  0.611E-04  0.790E-04  0.209E-03  0.162E-03
 -11.429  0.959E-03  0.432E-03  0.636E-04  0.810E-04  0.214E-03  0.169E-03
 -11.419  0.982E-03  0.438E-03  0.663E-04  0.829E-04  0.219E-03  0.176E-03
 -11.409  0.100E-02  0.445E-03  0.691E-04  0.847E-04  0.223E-03  0.183E-03
 -11.399  0.103E-02  0.451E-03  0.721E-04  0.865E-04  0.227E-03  0.191E-03
 -11.389  0.105E-02  0.457E-03  0.752E-04  0.881E-04  0.232E-03  0.199E-03
 -11.379  0.142E-02  0.603E-03  0.107E-03  0.118E-03  0.311E-03  0.282E-03
 -11.369  0.135E-02  0.566E-03  0.104E-03  0.112E-03  0.296E-03  0.275E-03
 -11.359  0.129E-02  0.532E-03  0.101E-03  0.107E-03  0.282E-03  0.267E-03
 -11.349  0.123E-02  0.501E-03  0.983E-04  0.102E-03  0.268E-03  0.259E-03
 -11.339  0.117E-02  0.472E-03  0.954E-04  0.970E-04  0.256E-03  0.252E-03
 -11.329  0.114E-02  0.454E-03  0.935E-04  0.942E-04  0.248E-03  0.246E-03
 -11.319  0.111E-02  0.441E-03  0.917E-04  0.921E-04  0.243E-03  0.242E-03
 -11.309  0.112E-02  0.441E-03  0.937E-04  0.929E-04  0.245E-03  0.247E-03
 -11.299  0.114E-02  0.443E-03  0.967E-04  0.943E-04  0.248E-03  0.255E-03
 -11.289  0.116E-02  0.446E-03  0.997E-04  0.956E-04  0.252E-03  0.262E-03
 -11.279  0.117E-02  0.448E-03  0.103E-03  0.969E-04  0.256E-03  0.271E-03
 -11.269  0.119E-02  0.450E-03  0.106E-03  0.982E-04  0.259E-03  0.279E-03
 -11.259  0.121E-02  0.451E-03  0.109E-03  0.994E-04  0.262E-03  0.287E-03
 -11.249  0.123E-02  0.453E-03  0.113E-03  0.101E-03  0.265E-03  0.296E-03
 -11.239  0.124E-02  0.454E-03  0.116E-03  0.102E-03  0.269E-03  0.304E-03
 -11.229  0.126E-02  0.455E-03  0.119E-03  0.103E-03  0.272E-03  0.313E-03
 -11.219  0.128E-02  0.456E-03  0.123E-03  0.104E-03  0.274E-03  0.322E-03
 -11.209  0.130E-02  0.456E-03  0.126E-03  0.105E-03  0.277E-03  0.332E-03
 -11.199  0.104E-02  0.359E-03  0.107E-03  0.801E-04  0.213E-03  0.280E-03
 -11.189  0.106E-02  0.362E-03  0.109E-03  0.826E-04  0.219E-03  0.285E-03
 -11.179  0.108E-02  0.365E-03  0.111E-03  0.849E-04  0.225E-03  0.290E-03
 -11.169  0.110E-02  0.368E-03  0.113E-03  0.872E-04  0.231E-03  0.296E-03
 -11.159  0.112E-02  0.372E-03  0.115E-03  0.893E-04  0.237E-03  0.302E-03
 -11.149  0.114E-02  0.375E-03  0.118E-03  0.913E-04  0.242E-03  0.309E-03
 -11.139  0.114E-02  0.374E-03  0.119E-03  0.921E-04  0.244E-03  0.311E-03
 -11.129  0.112E-02  0.361E-03  0.112E-03  0.969E-04  0.256E-03  0.295E-03
 -11.119  0.113E-02  0.357E-03  0.108E-03  0.105E-03  0.277E-03  0.282E-03
 -11.109  0.115E-02  0.357E-03  0.104E-03  0.115E-03  0.301E-03  0.272E-03
 -11.099  0.118E-02  0.363E-03  0.105E-03  0.121E-03  0.317E-03  0.275E-03
 -11.089  0.119E-02  0.363E-03  0.104E-03  0.125E-03  0.327E-03  0.274E-03
 -11.079  0.121E-02  0.364E-03  0.104E-03  0.129E-03  0.337E-03  0.273E-03
 -11.069  0.122E-02  0.364E-03  0.103E-03  0.133E-03  0.348E-03  0.271E-03
 -11.059  0.123E-02  0.365E-03  0.102E-03  0.137E-03  0.358E-03  0.269E-03
 -11.049  0.124E-02  0.365E-03  0.101E-03  0.141E-03  0.369E-03  0.266E-03
 -11.039  0.125E-02  0.365E-03  0.998E-04  0.146E-03  0.380E-03  0.263E-03
 -11.029  0.126E-02  0.366E-03  0.984E-04  0.150E-03  0.391E-03  0.260E-03
 -11.019  0.153E-02  0.443E-03  0.130E-03  0.170E-03  0.444E-03  0.342E-03
 -11.009  0.222E-02  0.634E-03  0.173E-03  0.266E-03  0.692E-03  0.455E-03
 -10.999  0.213E-02  0.610E-03  0.167E-03  0.254E-03  0.661E-03  0.438E-03
 -10.989  0.204E-02  0.584E-03  0.160E-03  0.242E-03  0.631E-03  0.421E-03
 -10.979  0.195E-02  0.558E-03  0.154E-03  0.230E-03  0.600E-03  0.404E-03
 -10.969  0.185E-02  0.532E-03  0.147E-03  0.218E-03  0.570E-03  0.385E-03
 -10.959  0.176E-02  0.504E-03  0.139E-03  0.206E-03  0.540E-03  0.366E-03
 -10.949  0.166E-02  0.475E-03  0.132E-03  0.195E-03  0.510E-03  0.346E-03
 -10.939  0.156E-02  0.446E-03  0.124E-03  0.183E-03  0.481E-03  0.326E-03
 -10.929  0.146E-02  0.416E-03  0.115E-03  0.172E-03  0.452E-03  0.304E-03
 -10.919  0.136E-02  0.385E-03  0.107E-03  0.161E-03  0.423E-03  0.282E-03
 -10.909  0.126E-02  0.353E-03  0.979E-04  0.150E-03  0.395E-03  0.260E-03
 -10.899  0.115E-02  0.320E-03  0.886E-04  0.139E-03  0.367E-03  0.236E-03
 -10.889  0.105E-02  0.288E-03  0.791E-04  0.130E-03  0.342E-03  0.212E-03
 -10.879  0.987E-03  0.266E-03  0.727E-04  0.125E-03  0.327E-03  0.196E-03
 -10.869  0.967E-03  0.260E-03  0.718E-04  0.122E-03  0.320E-03  0.194E-03
 -10.859  0.973E-03  0.258E-03  0.757E-04  0.120E-03  0.315E-03  0.204E-03
 -10.849  0.990E-03  0.258E-03  0.815E-04  0.119E-03  0.312E-03  0.220E-03
 -10.839  0.101E-02  0.258E-03  0.871E-04  0.118E-03  0.311E-03  0.235E-03
 -10.829  0.247E-02  0.608E-03  0.231E-03  0.279E-03  0.735E-03  0.619E-03
 -10.819  0.216E-02  0.535E-03  0.194E-03  0.251E-03  0.662E-03  0.521E-03
 -10.809  0.183E-02  0.449E-03  0.161E-03  0.216E-03  0.570E-03  0.434E-03
 -10.799  0.147E-02  0.352E-03  0.132E-03  0.174E-03  0.458E-03  0.357E-03
 -10.789  0.110E-02  0.243E-03  0.108E-03  0.124E-03  0.328E-03  0.292E-03
 -10.779  0.791E-03  0.150E-03  0.936E-04  0.817E-04  0.215E-03  0.251E-03
 -10.769  0.918E-03  0.167E-03  0.113E-03  0.927E-04  0.243E-03  0.302E-03
 -10.759  0.107E-02  0.190E-03  0.138E-03  0.105E-03  0.276E-03  0.366E-03
 -10.749  0.124E-02  0.215E-03  0.162E-03  0.118E-03  0.309E-03  0.431E-03
 -10.739  0.140E-02  0.242E-03  0.188E-03  0.130E-03  0.342E-03  0.498E-03
 -10.729  0.157E-02  0.271E-03  0.214E-03  0.143E-03  0.375E-03  0.566E-03
 -10.719  0.174E-02  0.302E-03  0.240E-03  0.156E-03  0.408E-03  0.635E-03
 -10.709  0.192E-02  0.335E-03  0.267E-03  0.168E-03  0.441E-03  0.706E-03
 -10.699  0.210E-02  0.371E-03  0.294E-03  0.181E-03  0.474E-03  0.778E-03
 -10.689  0.228E-02  0.408E-03  0.321E-03  0.193E-03  0.507E-03  0.852E-03
 -10.679  0.247E-02  0.448E-03  0.349E-03  0.206E-03  0.539E-03  0.927E-03
 -10.669  0.128E-02  0.204E-03  0.157E-03  0.137E-03  0.362E-03  0.417E-03
 -10.659  0.130E-02  0.205E-03  0.159E-03  0.140E-03  0.370E-03  0.422E-03
 -10.649  0.132E-02  0.207E-03  0.160E-03  0.143E-03  0.377E-03  0.427E-03
 -10.639  0.133E-02  0.209E-03  0.162E-03  0.146E-03  0.385E-03  0.432E-03
 -10.629  0.135E-02  0.210E-03  0.164E-03  0.149E-03  0.393E-03  0.436E-03
 -10.619  0.137E-02  0.213E-03  0.165E-03  0.152E-03  0.401E-03  0.441E-03
 -10.609  0.139E-02  0.215E-03  0.167E-03  0.155E-03  0.409E-03  0.445E-03
 -10.599  0.141E-02  0.218E-03  0.168E-03  0.157E-03  0.416E-03  0.448E-03
 -10.589  0.143E-02  0.221E-03  0.169E-03  0.160E-03  0.424E-03  0.452E-03
 -10.579  0.144E-02  0.224E-03  0.171E-03  0.163E-03  0.431E-03  0.456E-03
 -10.569  0.146E-02  0.227E-03  0.172E-03  0.166E-03  0.439E-03  0.459E-03
 -10.559  0.148E-02  0.231E-03  0.173E-03  0.168E-03  0.446E-03  0.462E-03
 -10.549  0.150E-02  0.234E-03  0.174E-03  0.171E-03  0.454E-03  0.465E-03
 -10.539  0.152E-02  0.238E-03  0.175E-03  0.174E-03  0.461E-03  0.468E-03
 -10.529  0.153E-02  0.243E-03  0.176E-03  0.176E-03  0.469E-03  0.470E-03
 -10.519  0.155E-02  0.247E-03  0.177E-03  0.179E-03  0.476E-03  0.473E-03
 -10.509  0.175E-02  0.301E-03  0.195E-03  0.200E-03  0.531E-03  0.522E-03
 -10.499  0.409E-02  0.112E-02  0.351E-03  0.458E-03  0.121E-02  0.948E-03
 -10.489  0.744E-02  0.143E-02  0.770E-03  0.863E-03  0.230E-02  0.207E-02
 -10.479  0.176E-02  0.277E-03  0.199E-03  0.206E-03  0.548E-03  0.533E-03
 -10.469  0.178E-02  0.275E-03  0.199E-03  0.211E-03  0.563E-03  0.534E-03
 -10.459  0.180E-02  0.273E-03  0.199E-03  0.218E-03  0.582E-03  0.533E-03
 -10.449  0.183E-02  0.270E-03  0.198E-03  0.225E-03  0.603E-03  0.530E-03
 -10.439  0.185E-02  0.268E-03  0.197E-03  0.234E-03  0.627E-03  0.527E-03
 -10.429  0.188E-02  0.265E-03  0.195E-03  0.244E-03  0.655E-03  0.523E-03
 -10.419  0.191E-02  0.262E-03  0.193E-03  0.255E-03  0.685E-03  0.517E-03
 -10.409  0.196E-02  0.262E-03  0.192E-03  0.269E-03  0.725E-03  0.514E-03
 -10.399  0.201E-02  0.261E-03  0.191E-03  0.282E-03  0.761E-03  0.513E-03
 -10.389  0.206E-02  0.261E-03  0.191E-03  0.295E-03  0.796E-03  0.513E-03
 -10.379  0.210E-02  0.262E-03  0.192E-03  0.306E-03  0.828E-03  0.515E-03
 -10.369  0.215E-02  0.262E-03  0.194E-03  0.317E-03  0.859E-03  0.519E-03
 -10.359  0.220E-02  0.263E-03  0.196E-03  0.327E-03  0.886E-03  0.525E-03
 -10.349  0.224E-02  0.264E-03  0.198E-03  0.336E-03  0.912E-03  0.532E-03
 -10.339  0.229E-02  0.265E-03  0.201E-03  0.345E-03  0.935E-03  0.541E-03
 -10.329  0.233E-02  0.266E-03  0.205E-03  0.352E-03  0.956E-03  0.552E-03
 -10.319  0.235E-02  0.265E-03  0.208E-03  0.356E-03  0.966E-03  0.560E-03
 -10.309  0.237E-02  0.264E-03  0.211E-03  0.358E-03  0.973E-03  0.569E-03
 -10.299  0.241E-02  0.266E-03  0.218E-03  0.361E-03  0.981E-03  0.588E-03
 -10.289  0.246E-02  0.269E-03  0.225E-03  0.364E-03  0.990E-03  0.610E-03
 -10.279  0.250E-02  0.273E-03  0.233E-03  0.367E-03  0.998E-03  0.633E-03
 -10.269  0.255E-02  0.277E-03  0.242E-03  0.370E-03  0.101E-02  0.657E-03
 -10.259  0.260E-02  0.281E-03  0.250E-03  0.373E-03  0.101E-02  0.681E-03
 -10.249  0.265E-02  0.285E-03  0.259E-03  0.376E-03  0.102E-02  0.706E-03
 -10.239  0.270E-02  0.290E-03  0.268E-03  0.378E-03  0.103E-02  0.732E-03
 -10.229  0.275E-02  0.294E-03  0.277E-03  0.381E-03  0.104E-02  0.759E-03
 -10.219  0.280E-02  0.300E-03  0.287E-03  0.384E-03  0.105E-02  0.786E-03
 -10.209  0.286E-02  0.305E-03  0.297E-03  0.387E-03  0.106E-02  0.815E-03
 -10.199  0.292E-02  0.311E-03  0.307E-03  0.390E-03  0.106E-02  0.844E-03
 -10.189  0.298E-02  0.317E-03  0.319E-03  0.393E-03  0.107E-02  0.876E-03
 -10.179  0.319E-02  0.341E-03  0.351E-03  0.411E-03  0.112E-02  0.966E-03
 -10.169  0.340E-02  0.362E-03  0.387E-03  0.424E-03  0.116E-02  0.107E-02
 -10.159  0.362E-02  0.381E-03  0.429E-03  0.433E-03  0.119E-02  0.119E-02
 -10.149  0.383E-02  0.398E-03  0.474E-03  0.437E-03  0.120E-02  0.132E-02
 -10.139  0.505E-02  0.593E-03  0.756E-03  0.433E-03  0.118E-02  0.209E-02
 -10.129  0.232E-02  0.219E-03  0.355E-03  0.195E-03  0.545E-03  0.101E-02
 -10.119  0.255E-02  0.228E-03  0.409E-03  0.197E-03  0.553E-03  0.116E-02
 -10.109  0.295E-02  0.278E-03  0.468E-03  0.229E-03  0.647E-03  0.133E-02
 -10.099  0.348E-02  0.371E-03  0.492E-03  0.320E-03  0.904E-03  0.139E-02
 -10.089  0.408E-02  0.480E-03  0.480E-03  0.468E-03  0.132E-02  0.134E-02
 -10.079  0.205E-02  0.279E-03  0.240E-03  0.224E-03  0.636E-03  0.670E-03
 -10.069  0.233E-02  0.297E-03  0.278E-03  0.253E-03  0.720E-03  0.780E-03
 -10.059  0.265E-02  0.311E-03  0.326E-03  0.285E-03  0.809E-03  0.920E-03
 -10.049  0.341E-02  0.376E-03  0.441E-03  0.349E-03  0.991E-03  0.125E-02
 -10.039  0.319E-02  0.356E-03  0.410E-03  0.328E-03  0.932E-03  0.117E-02
 -10.029  0.301E-02  0.339E-03  0.386E-03  0.309E-03  0.878E-03  0.110E-02
 -10.019  0.284E-02  0.324E-03  0.364E-03  0.289E-03  0.823E-03  0.104E-02
 -10.009  0.266E-02  0.307E-03  0.343E-03  0.268E-03  0.765E-03  0.980E-03
  -9.999  0.249E-02  0.290E-03  0.322E-03  0.247E-03  0.704E-03  0.922E-03
  -9.989  0.230E-02  0.271E-03  0.302E-03  0.224E-03  0.639E-03  0.866E-03
  -9.979  0.212E-02  0.252E-03  0.283E-03  0.200E-03  0.571E-03  0.810E-03
  -9.969  0.193E-02  0.232E-03  0.264E-03  0.175E-03  0.500E-03  0.756E-03
  -9.959  0.173E-02  0.211E-03  0.245E-03  0.149E-03  0.425E-03  0.703E-03
  -9.949  0.153E-02  0.189E-03  0.227E-03  0.121E-03  0.347E-03  0.651E-03
  -9.939  0.138E-02  0.167E-03  0.213E-03  0.102E-03  0.292E-03  0.609E-03
  -9.929  0.135E-02  0.144E-03  0.206E-03  0.106E-03  0.303E-03  0.588E-03
  -9.919  0.144E-02  0.142E-03  0.222E-03  0.115E-03  0.325E-03  0.634E-03
  -9.909  0.174E-02  0.161E-03  0.276E-03  0.132E-03  0.375E-03  0.791E-03
  -9.899  0.206E-02  0.183E-03  0.327E-03  0.159E-03  0.451E-03  0.939E-03
  -9.889  0.243E-02  0.208E-03  0.380E-03  0.197E-03  0.556E-03  0.109E-02
  -9.879  0.302E-02  0.249E-03  0.464E-03  0.253E-03  0.718E-03  0.133E-02
  -9.869  0.371E-02  0.299E-03  0.559E-03  0.324E-03  0.921E-03  0.161E-02
  -9.859  0.438E-02  0.347E-03  0.635E-03  0.408E-03  0.116E-02  0.183E-02
  -9.849  0.503E-02  0.395E-03  0.693E-03  0.506E-03  0.144E-02  0.200E-02
  -9.839  0.417E-02  0.321E-03  0.553E-03  0.442E-03  0.126E-02  0.159E-02
  -9.829  0.450E-02  0.341E-03  0.561E-03  0.515E-03  0.146E-02  0.161E-02
  -9.819  0.477E-02  0.357E-03  0.543E-03  0.602E-03  0.171E-02  0.156E-02
  -9.809  0.500E-02  0.369E-03  0.500E-03  0.705E-03  0.200E-02  0.143E-02
  -9.799  0.518E-02  0.378E-03  0.430E-03  0.821E-03  0.233E-02  0.122E-02
  -9.789  0.444E-02  0.318E-03  0.360E-03  0.714E-03  0.202E-02  0.102E-02
  -9.779  0.420E-03  0.293E-04  0.509E-04  0.511E-04  0.144E-03  0.145E-03
  -9.769  0.551E-04  0.305E-05  0.656E-05  0.696E-05  0.196E-04  0.190E-04
  -9.759  0.103E-03  0.558E-05  0.123E-04  0.128E-04  0.365E-04  0.358E-04
  -9.749  0.157E-03  0.843E-05  0.187E-04  0.194E-04  0.557E-04  0.549E-04
  -9.739  0.283E-03  0.169E-04  0.345E-04  0.342E-04  0.976E-04  0.100E-03
  -9.729  0.437E-03  0.247E-04  0.529E-04  0.531E-04  0.152E-03  0.154E-03
  -9.719  0.622E-03  0.341E-04  0.750E-04  0.757E-04  0.218E-03  0.219E-03
  -9.709  0.832E-03  0.449E-04  0.100E-03  0.101E-03  0.293E-03  0.293E-03
  -9.699  0.101E-02  0.539E-04  0.121E-03  0.122E-03  0.355E-03  0.355E-03
  -9.689  0.113E-02  0.603E-04  0.136E-03  0.137E-03  0.397E-03  0.400E-03
  -9.679  0.120E-02  0.639E-04  0.145E-03  0.145E-03  0.421E-03  0.427E-03
  -9.669  0.122E-02  0.648E-04  0.148E-03  0.146E-03  0.425E-03  0.437E-03
  -9.659  0.119E-02  0.630E-04  0.146E-03  0.141E-03  0.410E-03  0.429E-03
  -9.649  0.110E-02  0.584E-04  0.137E-03  0.129E-03  0.375E-03  0.404E-03
  -9.639  0.967E-03  0.510E-04  0.123E-03  0.111E-03  0.321E-03  0.361E-03
  -9.629  0.778E-03  0.408E-04  0.102E-03  0.856E-04  0.248E-03  0.301E-03
  -9.619  0.537E-03  0.278E-04  0.762E-04  0.539E-04  0.156E-03  0.223E-03
  -9.609  0.243E-03  0.121E-04  0.440E-04  0.156E-04  0.438E-04  0.128E-03
  -9.599  0.151E-03  0.683E-05  0.360E-04  0.141E-05  0.222E-05  0.104E-03
  -9.589  0.178E-03  0.785E-05  0.427E-04  0.161E-05  0.255E-05  0.123E-03
  -9.579  0.208E-03  0.895E-05  0.499E-04  0.182E-05  0.291E-05  0.144E-03
  -9.569  0.240E-03  0.101E-04  0.576E-04  0.205E-05  0.328E-05  0.167E-03
  -9.559  0.283E-03  0.122E-04  0.663E-04  0.400E-05  0.852E-05  0.192E-03
  -9.549  0.346E-03  0.150E-04  0.758E-04  0.100E-04  0.255E-04  0.220E-03
  -9.539  0.428E-03  0.184E-04  0.859E-04  0.201E-04  0.543E-04  0.249E-03
  -9.529  0.530E-03  0.226E-04  0.968E-04  0.342E-04  0.949E-04  0.281E-03
  -9.519  0.648E-03  0.269E-04  0.108E-03  0.517E-04  0.147E-03  0.315E-03
  -9.509  0.788E-03  0.321E-04  0.120E-03  0.738E-04  0.211E-03  0.351E-03
  -9.499  0.948E-03  0.381E-04  0.134E-03  0.999E-04  0.286E-03  0.390E-03
  -9.489  0.112E-02  0.444E-04  0.147E-03  0.130E-03  0.373E-03  0.430E-03
  -9.479  0.132E-02  0.518E-04  0.162E-03  0.163E-03  0.471E-03  0.472E-03
  -9.469  0.154E-02  0.599E-04  0.177E-03  0.201E-03  0.580E-03  0.517E-03
  -9.459  0.177E-02  0.686E-04  0.193E-03  0.243E-03  0.701E-03  0.565E-03
  -9.449  0.203E-02  0.782E-04  0.210E-03  0.289E-03  0.834E-03  0.614E-03
  -9.439  0.176E-02  0.679E-04  0.957E-04  0.338E-03  0.977E-03  0.278E-03
  -9.429  0.119E-02  0.449E-04  0.936E-04  0.201E-03  0.579E-03  0.273E-03
  -9.419  0.109E-02  0.394E-04  0.925E-04  0.177E-03  0.510E-03  0.270E-03
  -9.409  0.998E-03  0.345E-04  0.914E-04  0.156E-03  0.449E-03  0.267E-03
  -9.399  0.916E-03  0.301E-04  0.901E-04  0.137E-03  0.396E-03  0.263E-03
  -9.389  0.845E-03  0.261E-04  0.888E-04  0.121E-03  0.349E-03  0.259E-03
  -9.379  0.785E-03  0.228E-04  0.873E-04  0.108E-03  0.311E-03  0.255E-03
  -9.369  0.735E-03  0.200E-04  0.857E-04  0.976E-04  0.281E-03  0.251E-03
  -9.359  0.695E-03  0.177E-04  0.840E-04  0.897E-04  0.258E-03  0.246E-03
  -9.349  0.666E-03  0.158E-04  0.822E-04  0.843E-04  0.243E-03  0.241E-03
  -9.339  0.646E-03  0.145E-04  0.802E-04  0.814E-04  0.235E-03  0.235E-03
  -9.329  0.630E-03  0.135E-04  0.783E-04  0.797E-04  0.229E-03  0.229E-03
  -9.319  0.613E-03  0.125E-04  0.762E-04  0.777E-04  0.224E-03  0.223E-03
  -9.309  0.594E-03  0.115E-04  0.739E-04  0.756E-04  0.217E-03  0.216E-03
  -9.299  0.574E-03  0.107E-04  0.715E-04  0.733E-04  0.210E-03  0.209E-03
  -9.289  0.579E-03  0.129E-04  0.738E-04  0.766E-04  0.209E-03  0.206E-03
  -9.279  0.548E-03  0.112E-04  0.688E-04  0.717E-04  0.200E-03  0.196E-03
  -9.269  0.520E-03  0.997E-05  0.646E-04  0.675E-04  0.191E-03  0.187E-03
  -9.259  0.499E-03  0.970E-05  0.616E-04  0.648E-04  0.184E-03  0.179E-03
  -9.249  0.469E-03  0.774E-05  0.581E-04  0.610E-04  0.173E-03  0.169E-03
  -9.239  0.433E-03  0.572E-05  0.538E-04  0.561E-04  0.160E-03  0.157E-03
  -9.229  0.399E-03  0.442E-05  0.496E-04  0.517E-04  0.148E-03  0.145E-03
  -9.219  0.370E-03  0.387E-05  0.459E-04  0.481E-04  0.138E-03  0.134E-03
  -9.209  0.340E-03  0.338E-05  0.421E-04  0.445E-04  0.127E-03  0.123E-03
  -9.199  0.309E-03  0.294E-05  0.381E-04  0.406E-04  0.116E-03  0.111E-03
  -9.189  0.277E-03  0.261E-05  0.340E-04  0.367E-04  0.104E-03  0.991E-04
  -9.179  0.244E-03  0.244E-05  0.298E-04  0.327E-04  0.923E-04  0.868E-04
  -9.169  0.211E-03  0.234E-05  0.256E-04  0.286E-04  0.801E-04  0.741E-04
  -9.159  0.177E-03  0.233E-05  0.211E-04  0.244E-04  0.677E-04  0.610E-04
  -9.149  0.142E-03  0.240E-05  0.166E-04  0.201E-04  0.549E-04  0.475E-04
  -9.139  0.106E-03  0.255E-05  0.120E-04  0.158E-04  0.418E-04  0.337E-04
  -9.129  0.694E-04  0.279E-05  0.720E-05  0.113E-04  0.285E-04  0.195E-04
  -9.119  0.371E-04  0.278E-05  0.424E-05  0.616E-05  0.132E-04  0.106E-04
  -9.109  0.349E-04  0.275E-05  0.468E-05  0.526E-05  0.104E-04  0.118E-04
  -9.099  0.362E-04  0.271E-05  0.511E-05  0.527E-05  0.103E-04  0.129E-04
  -9.089  0.378E-04  0.267E-05  0.553E-05  0.532E-05  0.102E-04  0.140E-04
  -9.079  0.394E-04  0.263E-05  0.595E-05  0.540E-05  0.103E-04  0.151E-04
  -9.069  0.412E-04  0.259E-05  0.636E-05  0.553E-05  0.105E-04  0.162E-04
  -9.059  0.431E-04  0.255E-05  0.677E-05  0.570E-05  0.109E-04  0.173E-04
  -9.049  0.148E-03  0.978E-05  0.307E-04  0.679E-05  0.139E-04  0.866E-04
  -9.039  0.207E-03  0.149E-03  0.901E-05  0.836E-05  0.168E-04  0.235E-04
  -9.029  0.316E-04  0.137E-05  0.583E-05  0.368E-05  0.631E-05  0.144E-04
  -9.019  0.346E-04  0.142E-05  0.629E-05  0.410E-05  0.723E-05  0.156E-04
  -9.009  0.378E-04  0.147E-05  0.677E-05  0.455E-05  0.825E-05  0.168E-04
  -8.999  0.411E-04  0.153E-05  0.724E-05  0.504E-05  0.935E-05  0.180E-04
  -8.989  0.446E-04  0.158E-05  0.773E-05  0.557E-05  0.106E-04  0.192E-04
  -8.979  0.482E-04  0.163E-05  0.821E-05  0.614E-05  0.118E-04  0.204E-04
  -8.969  0.519E-04  0.169E-05  0.870E-05  0.674E-05  0.132E-04  0.216E-04
  -8.959  0.558E-04  0.174E-05  0.920E-05  0.738E-05  0.147E-04  0.228E-04
  -8.949  0.599E-04  0.179E-05  0.970E-05  0.806E-05  0.163E-04  0.241E-04
  -8.939  0.641E-04  0.185E-05  0.102E-04  0.878E-05  0.179E-04  0.253E-04
  -8.929  0.810E-04  0.296E-05  0.121E-04  0.124E-04  0.243E-04  0.292E-04
  -8.919  0.868E-04  0.288E-05  0.128E-04  0.135E-04  0.266E-04  0.310E-04
  -8.909  0.923E-04  0.281E-05  0.135E-04  0.145E-04  0.289E-04  0.327E-04
  -8.899  0.975E-04  0.274E-05  0.141E-04  0.154E-04  0.311E-04  0.342E-04
  -8.889  0.102E-03  0.267E-05  0.146E-04  0.163E-04  0.331E-04  0.356E-04
  -8.879  0.107E-03  0.260E-05  0.151E-04  0.171E-04  0.351E-04  0.369E-04
  -8.869  0.111E-03  0.253E-05  0.155E-04  0.178E-04  0.370E-04  0.380E-04
  -8.859  0.115E-03  0.247E-05  0.158E-04  0.186E-04  0.387E-04  0.390E-04
  -8.849  0.214E-03  0.515E-05  0.222E-04  0.387E-04  0.907E-04  0.570E-04
  -8.839  0.206E-03  0.508E-05  0.217E-04  0.371E-04  0.865E-04  0.554E-04
  -8.829  0.198E-03  0.497E-05  0.212E-04  0.355E-04  0.823E-04  0.538E-04
  -8.819  0.189E-03  0.483E-05  0.206E-04  0.338E-04  0.781E-04  0.520E-04
  -8.809  0.181E-03  0.464E-05  0.199E-04  0.322E-04  0.740E-04  0.502E-04
  -8.799  0.172E-03  0.442E-05  0.192E-04  0.305E-04  0.698E-04  0.482E-04
  -8.789  0.163E-03  0.416E-05  0.184E-04  0.287E-04  0.657E-04  0.462E-04
  -8.779  0.154E-03  0.386E-05  0.176E-04  0.270E-04  0.615E-04  0.442E-04
  -8.769  0.145E-03  0.353E-05  0.168E-04  0.252E-04  0.574E-04  0.420E-04
  -8.759  0.135E-03  0.315E-05  0.159E-04  0.234E-04  0.533E-04  0.398E-04
  -8.749  0.126E-03  0.274E-05  0.150E-04  0.215E-04  0.491E-04  0.374E-04
  -8.739  0.116E-03  0.230E-05  0.140E-04  0.197E-04  0.450E-04  0.350E-04
  -8.729  0.106E-03  0.182E-05  0.130E-04  0.179E-04  0.411E-04  0.327E-04
  -8.719  0.970E-04  0.132E-05  0.120E-04  0.162E-04  0.372E-04  0.302E-04
  -8.709  0.874E-04  0.794E-06  0.110E-04  0.144E-04  0.334E-04  0.277E-04
  -8.699  0.137E-03  0.147E-05  0.178E-04  0.202E-04  0.505E-04  0.474E-04
  -8.689  0.410E-03  0.474E-05  0.538E-04  0.542E-04  0.148E-03  0.150E-03
  -8.679  0.915E-03  0.105E-04  0.120E-03  0.118E-03  0.329E-03  0.338E-03
  -8.669  0.165E-02  0.189E-04  0.217E-03  0.210E-03  0.594E-03  0.612E-03
  -8.659  0.263E-02  0.298E-04  0.344E-03  0.333E-03  0.944E-03  0.974E-03
  -8.649  0.377E-02  0.427E-04  0.488E-03  0.485E-03  0.138E-02  0.138E-02
  -8.639  0.203E-02  0.238E-04  0.353E-03  0.170E-03  0.481E-03  0.100E-02
  -8.629  0.161E-02  0.192E-04  0.252E-03  0.164E-03  0.463E-03  0.709E-03
  -8.619  0.130E-02  0.156E-04  0.179E-03  0.160E-03  0.450E-03  0.500E-03
  -8.609  0.111E-02  0.129E-04  0.134E-03  0.156E-03  0.439E-03  0.371E-03
  -8.599  0.103E-02  0.111E-04  0.117E-03  0.154E-03  0.430E-03  0.321E-03
  -8.589  0.104E-02  0.107E-04  0.123E-03  0.152E-03  0.423E-03  0.334E-03
  -8.579  0.106E-02  0.105E-04  0.130E-03  0.151E-03  0.418E-03  0.352E-03
  -8.569  0.108E-02  0.104E-04  0.137E-03  0.151E-03  0.415E-03  0.369E-03
  -8.559  0.111E-02  0.102E-04  0.144E-03  0.151E-03  0.413E-03  0.387E-03
  -8.549  0.113E-02  0.101E-04  0.152E-03  0.152E-03  0.412E-03  0.405E-03
  -8.539  0.116E-02  0.996E-05  0.159E-03  0.153E-03  0.413E-03  0.423E-03
  -8.529  0.119E-02  0.984E-05  0.167E-03  0.155E-03  0.416E-03  0.442E-03
  -8.519  0.122E-02  0.973E-05  0.174E-03  0.157E-03  0.420E-03  0.460E-03
  -8.509  0.126E-02  0.964E-05  0.182E-03  0.161E-03  0.425E-03  0.479E-03
  -8.499  0.129E-02  0.955E-05  0.190E-03  0.164E-03  0.433E-03  0.498E-03
  -8.489  0.133E-02  0.947E-05  0.198E-03  0.169E-03  0.441E-03  0.517E-03
  -8.479  0.143E-02  0.970E-05  0.214E-03  0.182E-03  0.473E-03  0.556E-03
  -8.469  0.158E-02  0.101E-04  0.235E-03  0.201E-03  0.520E-03  0.610E-03
  -8.459  0.172E-02  0.105E-04  0.256E-03  0.220E-03  0.568E-03  0.661E-03
  -8.449  0.185E-02  0.109E-04  0.276E-03  0.240E-03  0.614E-03  0.710E-03
  -8.439  0.198E-02  0.113E-04  0.295E-03  0.259E-03  0.660E-03  0.756E-03
  -8.429  0.211E-02  0.116E-04  0.313E-03  0.278E-03  0.705E-03  0.799E-03
  -8.419  0.223E-02  0.118E-04  0.330E-03  0.297E-03  0.749E-03  0.840E-03
  -8.409  0.234E-02  0.121E-04  0.346E-03  0.316E-03  0.792E-03  0.877E-03
  -8.399  0.246E-02  0.123E-04  0.361E-03  0.335E-03  0.835E-03  0.912E-03
  -8.389  0.256E-02  0.125E-04  0.376E-03  0.354E-03  0.877E-03  0.945E-03
  -8.379  0.261E-02  0.109E-04  0.381E-03  0.361E-03  0.899E-03  0.962E-03
  -8.369  0.268E-02  0.107E-04  0.386E-03  0.377E-03  0.936E-03  0.970E-03
  -8.359  0.277E-02  0.114E-04  0.384E-03  0.405E-03  0.101E-02  0.959E-03
  -8.349  0.268E-02  0.960E-05  0.356E-03  0.400E-03  0.102E-02  0.900E-03
  -8.339  0.282E-02  0.919E-05  0.360E-03  0.439E-03  0.111E-02  0.902E-03
  -8.329  0.288E-02  0.866E-05  0.349E-03  0.471E-03  0.119E-02  0.863E-03
  -8.319  0.286E-02  0.800E-05  0.325E-03  0.498E-03  0.125E-02  0.784E-03
  -8.309  0.276E-02  0.723E-05  0.286E-03  0.518E-03  0.128E-02  0.664E-03
  -8.299  0.259E-02  0.637E-05  0.265E-03  0.504E-03  0.123E-02  0.588E-03
  -8.289  0.413E-02  0.931E-05  0.491E-03  0.693E-03  0.174E-02  0.120E-02
  -8.279  0.732E-02  0.143E-04  0.995E-03  0.115E-02  0.282E-02  0.234E-02
  -8.269  0.279E-02  0.554E-05  0.384E-03  0.470E-03  0.109E-02  0.836E-03
  -8.259  0.277E-02  0.506E-05  0.409E-03  0.457E-03  0.103E-02  0.866E-03
  -8.249  0.276E-02  0.468E-05  0.427E-03  0.448E-03  0.992E-03  0.889E-03
  -8.239  0.275E-02  0.437E-05  0.438E-03  0.444E-03  0.967E-03  0.901E-03
  -8.229  0.275E-02  0.413E-05  0.440E-03  0.445E-03  0.958E-03  0.901E-03
  -8.219  0.274E-02  0.394E-05  0.435E-03  0.449E-03  0.965E-03  0.890E-03
  -8.209  0.297E-02  0.401E-05  0.465E-03  0.502E-03  0.106E-02  0.942E-03
  -8.199  0.322E-02  0.407E-05  0.493E-03  0.559E-03  0.117E-02  0.992E-03
  -8.189  0.347E-02  0.412E-05  0.519E-03  0.620E-03  0.128E-02  0.104E-02
  -8.179  0.372E-02  0.417E-05  0.543E-03  0.684E-03  0.141E-02  0.108E-02
  -8.169  0.280E-02  0.347E-05  0.373E-03  0.527E-03  0.112E-02  0.774E-03
  -8.159  0.287E-02  0.347E-05  0.387E-03  0.539E-03  0.114E-02  0.797E-03
  -8.149  0.294E-02  0.347E-05  0.401E-03  0.549E-03  0.116E-02  0.819E-03
  -8.139  0.299E-02  0.346E-05  0.413E-03  0.556E-03  0.118E-02  0.839E-03
  -8.129  0.303E-02  0.346E-05  0.425E-03  0.560E-03  0.119E-02  0.858E-03
  -8.119  0.307E-02  0.346E-05  0.436E-03  0.561E-03  0.119E-02  0.875E-03
  -8.109  0.309E-02  0.345E-05  0.446E-03  0.560E-03  0.119E-02  0.890E-03
  -8.099  0.311E-02  0.345E-05  0.454E-03  0.555E-03  0.119E-02  0.904E-03
  -8.089  0.311E-02  0.344E-05  0.462E-03  0.548E-03  0.118E-02  0.916E-03
  -8.079  0.329E-02  0.351E-05  0.497E-03  0.568E-03  0.123E-02  0.100E-02
  -8.069  0.348E-02  0.359E-05  0.532E-03  0.585E-03  0.127E-02  0.109E-02
  -8.059  0.362E-02  0.367E-05  0.563E-03  0.594E-03  0.129E-02  0.117E-02
  -8.049  0.372E-02  0.374E-05  0.587E-03  0.594E-03  0.130E-02  0.124E-02
  -8.039  0.377E-02  0.380E-05  0.606E-03  0.581E-03  0.127E-02  0.131E-02
  -8.029  0.377E-02  0.388E-05  0.621E-03  0.557E-03  0.122E-02  0.137E-02
  -8.019  0.372E-02  0.396E-05  0.632E-03  0.520E-03  0.115E-02  0.142E-02
  -8.009  0.361E-02  0.397E-05  0.638E-03  0.470E-03  0.104E-02  0.146E-02
  -7.999  0.339E-02  0.337E-05  0.623E-03  0.412E-03  0.905E-03  0.145E-02
  -7.989  0.308E-02  0.284E-05  0.582E-03  0.352E-03  0.768E-03  0.137E-02
  -7.979  0.485E-02  0.538E-05  0.865E-03  0.661E-03  0.138E-02  0.194E-02
  -7.969  0.393E-02  0.403E-05  0.683E-03  0.545E-03  0.113E-02  0.157E-02
  -7.959  0.291E-02  0.301E-05  0.493E-03  0.418E-03  0.853E-03  0.115E-02
  -7.949  0.202E-02  0.231E-05  0.327E-03  0.316E-03  0.638E-03  0.735E-03
  -7.939  0.138E-02  0.192E-05  0.227E-03  0.230E-03  0.467E-03  0.457E-03
  -7.929  0.134E-02  0.178E-05  0.221E-03  0.223E-03  0.456E-03  0.442E-03
  -7.919  0.131E-02  0.164E-05  0.215E-03  0.219E-03  0.449E-03  0.429E-03
  -7.909  0.128E-02  0.150E-05  0.208E-03  0.213E-03  0.439E-03  0.415E-03
  -7.899  0.123E-02  0.136E-05  0.200E-03  0.206E-03  0.426E-03  0.400E-03
  -7.889  0.118E-02  0.121E-05  0.192E-03  0.199E-03  0.410E-03  0.383E-03
  -7.879  0.113E-02  0.107E-05  0.183E-03  0.190E-03  0.391E-03  0.365E-03
  -7.869  0.107E-02  0.102E-05  0.173E-03  0.180E-03  0.370E-03  0.345E-03
  -7.859  0.474E-02  0.149E-05  0.669E-03  0.662E-03  0.170E-02  0.171E-02
  -7.849  0.425E-02  0.145E-05  0.601E-03  0.594E-03  0.152E-02  0.153E-02
  -7.839  0.378E-02  0.142E-05  0.538E-03  0.528E-03  0.135E-02  0.137E-02
  -7.829  0.334E-02  0.140E-05  0.478E-03  0.465E-03  0.118E-02  0.121E-02
  -7.819  0.292E-02  0.138E-05  0.422E-03  0.405E-03  0.103E-02  0.107E-02
  -7.809  0.260E-02  0.142E-05  0.380E-03  0.358E-03  0.901E-03  0.959E-03
  -7.799  0.237E-02  0.151E-05  0.351E-03  0.326E-03  0.811E-03  0.877E-03
  -7.789  0.217E-02  0.161E-05  0.327E-03  0.298E-03  0.733E-03  0.809E-03
  -7.779  0.201E-02  0.172E-05  0.309E-03  0.274E-03  0.667E-03  0.755E-03
  -7.769  0.188E-02  0.185E-05  0.295E-03  0.255E-03  0.614E-03  0.715E-03
  -7.759  0.179E-02  0.198E-05  0.287E-03  0.240E-03  0.572E-03  0.688E-03
  -7.749  0.173E-02  0.212E-05  0.283E-03  0.229E-03  0.543E-03  0.676E-03
  -7.739  0.171E-02  0.228E-05  0.285E-03  0.223E-03  0.525E-03  0.678E-03
  -7.729  0.170E-02  0.245E-05  0.290E-03  0.217E-03  0.509E-03  0.684E-03
  -7.719  0.169E-02  0.262E-05  0.294E-03  0.211E-03  0.492E-03  0.692E-03
  -7.709  0.168E-02  0.279E-05  0.300E-03  0.205E-03  0.474E-03  0.700E-03
  -7.699  0.167E-02  0.298E-05  0.306E-03  0.199E-03  0.456E-03  0.710E-03
  -7.689  0.167E-02  0.317E-05  0.312E-03  0.192E-03  0.437E-03  0.721E-03
  -7.679  0.166E-02  0.336E-05  0.319E-03  0.186E-03  0.417E-03  0.734E-03
  -7.669  0.165E-02  0.357E-05  0.327E-03  0.179E-03  0.397E-03  0.748E-03
  -7.659  0.165E-02  0.377E-05  0.336E-03  0.171E-03  0.376E-03  0.763E-03
  -7.649  0.164E-02  0.442E-05  0.342E-03  0.165E-03  0.358E-03  0.773E-03
  -7.639  0.173E-02  0.604E-05  0.345E-03  0.191E-03  0.411E-03  0.776E-03
  -7.629  0.198E-02  0.780E-05  0.352E-03  0.263E-03  0.575E-03  0.782E-03
  -7.619  0.286E-02  0.109E-04  0.387E-03  0.500E-03  0.112E-02  0.842E-03
  -7.609  0.445E-02  0.137E-04  0.437E-03  0.943E-03  0.213E-02  0.931E-03
  -7.599  0.656E-02  0.158E-04  0.463E-03  0.156E-02  0.354E-02  0.986E-03
  -7.589  0.147E-02  0.570E-05  0.230E-03  0.231E-03  0.507E-03  0.499E-03
  -7.579  0.151E-02  0.658E-05  0.233E-03  0.238E-03  0.526E-03  0.506E-03
  -7.569  0.155E-02  0.742E-05  0.236E-03  0.245E-03  0.546E-03  0.514E-03
  -7.559  0.159E-02  0.822E-05  0.239E-03  0.252E-03  0.566E-03  0.524E-03
  -7.549  0.163E-02  0.899E-05  0.243E-03  0.259E-03  0.587E-03  0.534E-03
  -7.539  0.168E-02  0.971E-05  0.248E-03  0.266E-03  0.607E-03  0.546E-03
  -7.529  0.149E-02  0.973E-05  0.215E-03  0.236E-03  0.552E-03  0.482E-03
  -7.519  0.154E-02  0.103E-04  0.220E-03  0.243E-03  0.570E-03  0.496E-03
  -7.509  0.159E-02  0.109E-04  0.226E-03  0.250E-03  0.589E-03  0.511E-03
  -7.499  0.164E-02  0.114E-04  0.232E-03  0.258E-03  0.609E-03  0.527E-03
  -7.489  0.169E-02  0.119E-04  0.238E-03  0.265E-03  0.629E-03  0.545E-03
  -7.479  0.174E-02  0.124E-04  0.246E-03  0.273E-03  0.649E-03  0.564E-03
  -7.469  0.180E-02  0.128E-04  0.253E-03  0.281E-03  0.670E-03  0.585E-03
  -7.459  0.186E-02  0.132E-04  0.261E-03  0.290E-03  0.691E-03  0.607E-03
  -7.449  0.192E-02  0.135E-04  0.270E-03  0.298E-03  0.712E-03  0.630E-03
  -7.439  0.199E-02  0.138E-04  0.279E-03  0.307E-03  0.734E-03  0.655E-03
  -7.429  0.206E-02  0.141E-04  0.289E-03  0.316E-03  0.756E-03  0.681E-03
  -7.419  0.106E-01  0.511E-04  0.147E-02  0.151E-02  0.381E-02  0.371E-02
  -7.409  0.832E-02  0.372E-04  0.117E-02  0.118E-02  0.297E-02  0.296E-02
  -7.399  0.694E-02  0.286E-04  0.987E-03  0.969E-03  0.244E-02  0.251E-02
  -7.389  0.618E-02  0.240E-04  0.888E-03  0.850E-03  0.214E-02  0.227E-02
  -7.379  0.516E-02  0.199E-04  0.754E-03  0.699E-03  0.175E-02  0.194E-02
  -7.369  0.381E-02  0.160E-04  0.573E-03  0.507E-03  0.124E-02  0.147E-02
  -7.359  0.214E-02  0.124E-04  0.347E-03  0.273E-03  0.627E-03  0.883E-03
  -7.349  0.138E-02  0.110E-04  0.202E-03  0.216E-03  0.484E-03  0.468E-03
  -7.339  0.123E-02  0.107E-04  0.177E-03  0.201E-03  0.446E-03  0.399E-03
  -7.329  0.114E-02  0.106E-04  0.162E-03  0.190E-03  0.415E-03  0.363E-03
  -7.319  0.106E-02  0.105E-04  0.150E-03  0.180E-03  0.390E-03  0.334E-03
  -7.309  0.101E-02  0.104E-04  0.141E-03  0.173E-03  0.371E-03  0.310E-03
  -7.299  0.965E-03  0.104E-04  0.134E-03  0.169E-03  0.358E-03  0.294E-03
  -7.289  0.943E-03  0.105E-04  0.130E-03  0.167E-03  0.351E-03  0.284E-03
  -7.279  0.942E-03  0.107E-04  0.129E-03  0.168E-03  0.352E-03  0.282E-03
  -7.269  0.963E-03  0.113E-04  0.132E-03  0.172E-03  0.359E-03  0.288E-03
  -7.259  0.988E-03  0.117E-04  0.137E-03  0.175E-03  0.367E-03  0.298E-03
  -7.249  0.101E-02  0.121E-04  0.142E-03  0.179E-03  0.375E-03  0.307E-03
  -7.239  0.116E-02  0.135E-04  0.168E-03  0.197E-03  0.415E-03  0.364E-03
  -7.229  0.117E-02  0.141E-04  0.173E-03  0.197E-03  0.415E-03  0.373E-03
  -7.219  0.119E-02  0.146E-04  0.177E-03  0.197E-03  0.415E-03  0.382E-03
  -7.209  0.120E-02  0.152E-04  0.182E-03  0.197E-03  0.417E-03  0.393E-03
  -7.199  0.123E-02  0.158E-04  0.187E-03  0.198E-03  0.421E-03  0.405E-03
  -7.189  0.125E-02  0.163E-04  0.193E-03  0.199E-03  0.426E-03  0.420E-03
  -7.179  0.129E-02  0.169E-04  0.200E-03  0.201E-03  0.433E-03  0.436E-03
  -7.169  0.132E-02  0.175E-04  0.208E-03  0.204E-03  0.441E-03  0.454E-03
  -7.159  0.137E-02  0.180E-04  0.216E-03  0.207E-03  0.451E-03  0.473E-03
  -7.149  0.141E-02  0.186E-04  0.225E-03  0.210E-03  0.462E-03  0.495E-03
  -7.139  0.146E-02  0.192E-04  0.235E-03  0.214E-03  0.474E-03  0.518E-03
  -7.129  0.152E-02  0.198E-04  0.245E-03  0.219E-03  0.489E-03  0.543E-03
  -7.119  0.158E-02  0.203E-04  0.256E-03  0.224E-03  0.504E-03  0.570E-03
  -7.109  0.164E-02  0.209E-04  0.268E-03  0.230E-03  0.522E-03  0.599E-03
  -7.099  0.171E-02  0.215E-04  0.280E-03  0.236E-03  0.541E-03  0.629E-03
  -7.089  0.178E-02  0.221E-04  0.293E-03  0.243E-03  0.561E-03  0.661E-03
  -7.079  0.186E-02  0.226E-04  0.307E-03  0.250E-03  0.583E-03  0.695E-03
  -7.069  0.194E-02  0.232E-04  0.321E-03  0.258E-03  0.606E-03  0.731E-03
  -7.059  0.203E-02  0.238E-04  0.336E-03  0.266E-03  0.631E-03  0.768E-03
  -7.049  0.212E-02  0.244E-04  0.352E-03  0.275E-03  0.657E-03  0.808E-03
  -7.039  0.221E-02  0.250E-04  0.368E-03  0.285E-03  0.685E-03  0.849E-03
  -7.029  0.231E-02  0.256E-04  0.385E-03  0.295E-03  0.714E-03  0.892E-03
  -7.019  0.249E-02  0.278E-04  0.414E-03  0.317E-03  0.764E-03  0.970E-03
  -7.009  0.412E-02  0.691E-04  0.501E-03  0.727E-03  0.163E-02  0.119E-02
  -6.999  0.281E-02  0.265E-04  0.445E-03  0.358E-03  0.901E-03  0.108E-02
  -6.989  0.487E-02  0.373E-04  0.808E-03  0.574E-03  0.150E-02  0.195E-02
  -6.979  0.333E-02  0.387E-04  0.490E-03  0.451E-03  0.114E-02  0.121E-02
  -6.969  0.232E-02  0.307E-04  0.289E-03  0.368E-03  0.900E-03  0.734E-03
  -6.959  0.229E-02  0.303E-04  0.277E-03  0.368E-03  0.901E-03  0.710E-03
  -6.949  0.218E-02  0.289E-04  0.259E-03  0.353E-03  0.868E-03  0.668E-03
  -6.939  0.199E-02  0.266E-04  0.236E-03  0.324E-03  0.800E-03  0.608E-03
  -6.929  0.174E-02  0.234E-04  0.206E-03  0.280E-03  0.697E-03  0.530E-03
  -6.919  0.141E-02  0.191E-04  0.171E-03  0.222E-03  0.560E-03  0.434E-03
  -6.909  0.105E-02  0.148E-04  0.138E-03  0.155E-03  0.399E-03  0.344E-03
  -6.899  0.755E-03  0.128E-04  0.108E-03  0.101E-03  0.262E-03  0.272E-03
  -6.889  0.692E-03  0.141E-04  0.968E-04  0.939E-04  0.240E-03  0.247E-03
  -6.879  0.704E-03  0.138E-04  0.980E-04  0.968E-04  0.246E-03  0.249E-03
  -6.869  0.715E-03  0.135E-04  0.993E-04  0.995E-04  0.251E-03  0.252E-03
  -6.859  0.726E-03  0.132E-04  0.100E-03  0.102E-03  0.256E-03  0.254E-03
  -6.849  0.466E-01  0.666E-03  0.648E-02  0.645E-02  0.163E-01  0.167E-01
  -6.839  0.139E-02  0.263E-04  0.191E-03  0.196E-03  0.494E-03  0.486E-03
  -6.829  0.120E-02  0.251E-04  0.165E-03  0.168E-03  0.424E-03  0.414E-03
  -6.819  0.102E-02  0.208E-04  0.144E-03  0.144E-03  0.360E-03  0.356E-03
  -6.809  0.800E-03  0.131E-04  0.111E-03  0.115E-03  0.284E-03  0.277E-03
  -6.799  0.648E-03  0.108E-04  0.904E-04  0.935E-04  0.229E-03  0.224E-03
  -6.789  0.517E-03  0.876E-05  0.727E-04  0.748E-04  0.182E-03  0.179E-03
  -6.779  0.406E-03  0.709E-05  0.579E-04  0.589E-04  0.141E-03  0.141E-03
  -6.769  0.316E-03  0.573E-05  0.461E-04  0.456E-04  0.108E-03  0.111E-03
  -6.759  0.247E-03  0.469E-05  0.372E-04  0.351E-04  0.807E-04  0.888E-04
  -6.749  0.198E-03  0.397E-05  0.313E-04  0.272E-04  0.608E-04  0.742E-04
  -6.739  0.169E-03  0.356E-05  0.284E-04  0.220E-04  0.479E-04  0.673E-04
  -6.729  0.161E-03  0.348E-05  0.285E-04  0.195E-04  0.418E-04  0.681E-04
  -6.719  0.174E-03  0.374E-05  0.314E-04  0.198E-04  0.427E-04  0.764E-04
  -6.709  0.196E-03  0.424E-05  0.357E-04  0.216E-04  0.467E-04  0.879E-04
  -6.699  0.254E-03  0.535E-05  0.474E-04  0.265E-04  0.585E-04  0.116E-03
  -6.689  0.357E-03  0.742E-05  0.676E-04  0.366E-04  0.808E-04  0.164E-03
  -6.679  0.516E-03  0.106E-04  0.990E-04  0.523E-04  0.115E-03  0.239E-03
  -6.669  0.817E-03  0.163E-04  0.161E-03  0.806E-04  0.178E-03  0.382E-03
  -6.659  0.137E-02  0.264E-04  0.267E-03  0.142E-03  0.315E-03  0.621E-03
  -6.649  0.216E-02  0.413E-04  0.404E-03  0.243E-03  0.541E-03  0.933E-03
  -6.639  0.319E-02  0.611E-04  0.572E-03  0.385E-03  0.856E-03  0.132E-02
  -6.629  0.446E-02  0.858E-04  0.771E-03  0.566E-03  0.126E-02  0.178E-02
  -6.619  0.596E-02  0.115E-03  0.100E-02  0.787E-03  0.175E-02  0.231E-02
  -6.609  0.286E-02  0.541E-04  0.375E-03  0.488E-03  0.110E-02  0.847E-03
  -6.599  0.252E-02  0.485E-04  0.345E-03  0.415E-03  0.930E-03  0.785E-03
  -6.589  0.225E-02  0.441E-04  0.321E-03  0.355E-03  0.796E-03  0.736E-03
  -6.579  0.205E-02  0.408E-04  0.303E-03  0.309E-03  0.694E-03  0.701E-03
  -6.569  0.191E-02  0.387E-04  0.292E-03  0.277E-03  0.624E-03  0.678E-03
  -6.559  0.184E-02  0.377E-04  0.287E-03  0.260E-03  0.585E-03  0.669E-03
  -6.549  0.184E-02  0.380E-04  0.289E-03  0.256E-03  0.578E-03  0.673E-03
  -6.539  0.192E-02  0.426E-04  0.300E-03  0.270E-03  0.611E-03  0.700E-03
  -6.529  0.226E-02  0.518E-04  0.335E-03  0.333E-03  0.754E-03  0.786E-03
  -6.519  0.286E-02  0.626E-04  0.397E-03  0.449E-03  0.102E-02  0.932E-03
  -6.509  0.174E-02  0.389E-04  0.266E-03  0.246E-03  0.559E-03  0.628E-03
  -6.499  0.174E-02  0.394E-04  0.265E-03  0.246E-03  0.560E-03  0.626E-03
  -6.489  0.173E-02  0.399E-04  0.264E-03  0.246E-03  0.561E-03  0.623E-03
  -6.479  0.173E-02  0.404E-04  0.262E-03  0.246E-03  0.562E-03  0.619E-03
  -6.469  0.172E-02  0.408E-04  0.261E-03  0.245E-03  0.563E-03  0.615E-03
  -6.459  0.172E-02  0.412E-04  0.259E-03  0.245E-03  0.563E-03  0.609E-03
  -6.449  0.171E-02  0.416E-04  0.256E-03  0.245E-03  0.564E-03  0.603E-03
  -6.439  0.170E-02  0.420E-04  0.254E-03  0.245E-03  0.564E-03  0.596E-03
  -6.429  0.169E-02  0.424E-04  0.251E-03  0.245E-03  0.564E-03  0.589E-03
  -6.419  0.168E-02  0.427E-04  0.248E-03  0.244E-03  0.564E-03  0.580E-03
  -6.409  0.167E-02  0.430E-04  0.244E-03  0.244E-03  0.563E-03  0.571E-03
  -6.399  0.165E-02  0.433E-04  0.240E-03  0.244E-03  0.563E-03  0.561E-03
  -6.389  0.164E-02  0.435E-04  0.236E-03  0.243E-03  0.562E-03  0.551E-03
  -6.379  0.175E-02  0.465E-04  0.245E-03  0.268E-03  0.622E-03  0.565E-03
  -6.369  0.204E-02  0.534E-04  0.273E-03  0.326E-03  0.767E-03  0.618E-03
  -6.359  0.227E-02  0.591E-04  0.295E-03  0.372E-03  0.884E-03  0.657E-03
  -6.349  0.244E-02  0.638E-04  0.310E-03  0.406E-03  0.973E-03  0.684E-03
  -6.339  0.255E-02  0.673E-04  0.320E-03  0.429E-03  0.104E-02  0.697E-03
  -6.329  0.260E-02  0.697E-04  0.323E-03  0.439E-03  0.107E-02  0.697E-03
  -6.319  0.324E-02  0.113E-03  0.390E-03  0.537E-03  0.135E-02  0.849E-03
  -6.309  0.397E-02  0.108E-03  0.476E-03  0.681E-03  0.171E-02  0.995E-03
  -6.299  0.534E-03  0.232E-04  0.791E-04  0.834E-04  0.174E-03  0.174E-03
  -6.289  0.549E-03  0.233E-04  0.821E-04  0.853E-04  0.179E-03  0.179E-03
  -6.279  0.578E-03  0.253E-04  0.861E-04  0.911E-04  0.187E-03  0.188E-03
  -6.269  0.610E-03  0.272E-04  0.911E-04  0.969E-04  0.197E-03  0.198E-03
  -6.259  0.646E-03  0.289E-04  0.972E-04  0.103E-03  0.206E-03  0.210E-03
  -6.249  0.684E-03  0.304E-04  0.104E-03  0.108E-03  0.217E-03  0.225E-03
  -6.239  0.679E-03  0.311E-04  0.102E-03  0.107E-03  0.218E-03  0.221E-03
  -6.229  0.720E-03  0.336E-04  0.110E-03  0.113E-03  0.230E-03  0.234E-03
  -6.219  0.759E-03  0.362E-04  0.117E-03  0.119E-03  0.242E-03  0.247E-03
  -6.209  0.798E-03  0.390E-04  0.123E-03  0.124E-03  0.253E-03  0.259E-03
  -6.199  0.836E-03  0.419E-04  0.130E-03  0.130E-03  0.264E-03  0.271E-03
  -6.189  0.949E-03  0.463E-04  0.150E-03  0.145E-03  0.298E-03  0.309E-03
  -6.179  0.968E-03  0.493E-04  0.153E-03  0.149E-03  0.303E-03  0.313E-03
  -6.169  0.986E-03  0.525E-04  0.155E-03  0.153E-03  0.309E-03  0.316E-03
  -6.159  0.101E-02  0.582E-04  0.159E-03  0.156E-03  0.315E-03  0.321E-03
  -6.149  0.103E-02  0.612E-04  0.161E-03  0.160E-03  0.319E-03  0.325E-03
  -6.139  0.104E-02  0.645E-04  0.164E-03  0.163E-03  0.323E-03  0.329E-03
  -6.129  0.107E-02  0.688E-04  0.168E-03  0.167E-03  0.328E-03  0.334E-03
  -6.119  0.109E-02  0.746E-04  0.171E-03  0.171E-03  0.332E-03  0.340E-03
  -6.109  0.111E-02  0.811E-04  0.175E-03  0.174E-03  0.336E-03  0.344E-03
  -6.099  0.112E-02  0.847E-04  0.178E-03  0.178E-03  0.337E-03  0.347E-03
  -6.089  0.114E-02  0.930E-04  0.180E-03  0.182E-03  0.340E-03  0.349E-03
  -6.079  0.116E-02  0.985E-04  0.183E-03  0.185E-03  0.341E-03  0.350E-03
  -6.069  0.117E-02  0.102E-03  0.185E-03  0.188E-03  0.341E-03  0.350E-03
  -6.059  0.118E-02  0.108E-03  0.188E-03  0.192E-03  0.343E-03  0.352E-03
  -6.049  0.130E-02  0.119E-03  0.205E-03  0.215E-03  0.376E-03  0.385E-03
  -6.039  0.153E-02  0.128E-03  0.240E-03  0.261E-03  0.449E-03  0.456E-03
  -6.029  0.169E-02  0.130E-03  0.268E-03  0.288E-03  0.498E-03  0.505E-03
  -6.019  0.179E-02  0.129E-03  0.291E-03  0.303E-03  0.530E-03  0.539E-03
  -6.009  0.189E-02  0.129E-03  0.312E-03  0.317E-03  0.558E-03  0.569E-03
  -5.999  0.197E-02  0.128E-03  0.331E-03  0.330E-03  0.583E-03  0.595E-03
  -5.989  0.204E-02  0.127E-03  0.348E-03  0.341E-03  0.604E-03  0.617E-03
  -5.979  0.209E-02  0.119E-03  0.364E-03  0.350E-03  0.620E-03  0.637E-03
  -5.969  0.212E-02  0.101E-03  0.378E-03  0.353E-03  0.630E-03  0.654E-03
  -5.959  0.213E-02  0.849E-04  0.387E-03  0.356E-03  0.640E-03  0.665E-03
  -5.949  0.213E-02  0.718E-04  0.391E-03  0.356E-03  0.646E-03  0.670E-03
  -5.939  0.212E-02  0.617E-04  0.389E-03  0.353E-03  0.647E-03  0.667E-03
  -5.929  0.208E-02  0.537E-04  0.381E-03  0.346E-03  0.641E-03  0.657E-03
  -5.919  0.203E-02  0.487E-04  0.371E-03  0.338E-03  0.633E-03  0.642E-03
  -5.909  0.513E-02  0.173E-03  0.864E-03  0.960E-03  0.161E-02  0.153E-02
  -5.899  0.158E-02  0.421E-04  0.294E-03  0.268E-03  0.484E-03  0.490E-03
  -5.889  0.150E-02  0.409E-04  0.281E-03  0.259E-03  0.456E-03  0.460E-03
  -5.879  0.141E-02  0.396E-04  0.266E-03  0.250E-03  0.425E-03  0.429E-03
  -5.869  0.129E-02  0.383E-04  0.245E-03  0.233E-03  0.386E-03  0.389E-03
  -5.859  0.120E-02  0.371E-04  0.232E-03  0.214E-03  0.353E-03  0.363E-03
  -5.849  0.111E-02  0.357E-04  0.221E-03  0.194E-03  0.319E-03  0.339E-03
  -5.839  0.102E-02  0.342E-04  0.208E-03  0.174E-03  0.285E-03  0.315E-03
  -5.829  0.923E-03  0.326E-04  0.194E-03  0.154E-03  0.252E-03  0.290E-03
  -5.819  0.832E-03  0.311E-04  0.180E-03  0.135E-03  0.221E-03  0.265E-03
  -5.809  0.746E-03  0.300E-04  0.165E-03  0.117E-03  0.193E-03  0.241E-03
  -5.799  0.661E-03  0.288E-04  0.149E-03  0.101E-03  0.166E-03  0.216E-03
  -5.789  0.578E-03  0.275E-04  0.132E-03  0.852E-04  0.142E-03  0.191E-03
  -5.779  0.496E-03  0.262E-04  0.115E-03  0.707E-04  0.119E-03  0.166E-03
  -5.769  0.417E-03  0.247E-04  0.963E-04  0.573E-04  0.986E-04  0.140E-03
  -5.759  0.340E-03  0.231E-04  0.769E-04  0.450E-04  0.800E-04  0.115E-03
  -5.749  0.264E-03  0.214E-04  0.567E-04  0.338E-04  0.633E-04  0.886E-04
  -5.739  0.190E-03  0.196E-04  0.357E-04  0.237E-04  0.486E-04  0.625E-04
  -5.729  0.160E-03  0.199E-04  0.289E-04  0.181E-04  0.414E-04  0.521E-04
  -5.719  0.134E-03  0.187E-04  0.236E-04  0.135E-04  0.348E-04  0.431E-04
  -5.709  0.111E-03  0.151E-04  0.203E-04  0.107E-04  0.285E-04  0.361E-04
  -5.699  0.932E-04  0.101E-04  0.189E-04  0.951E-05  0.232E-04  0.315E-04
  -5.689  0.925E-04  0.967E-05  0.190E-04  0.969E-05  0.228E-04  0.314E-04
  -5.679  0.908E-04  0.932E-05  0.187E-04  0.966E-05  0.222E-04  0.310E-04
  -5.669  0.879E-04  0.895E-05  0.181E-04  0.946E-05  0.214E-04  0.300E-04
  -5.659  0.841E-04  0.860E-05  0.172E-04  0.916E-05  0.204E-04  0.287E-04
  -5.649  0.801E-04  0.826E-05  0.163E-04  0.883E-05  0.194E-04  0.273E-04
  -5.639  0.763E-04  0.795E-05  0.154E-04  0.852E-05  0.185E-04  0.260E-04
  -5.629  0.728E-04  0.769E-05  0.145E-04  0.824E-05  0.177E-04  0.246E-04
  -5.619  0.694E-04  0.746E-05  0.136E-04  0.797E-05  0.170E-04  0.233E-04
  -5.609  0.662E-04  0.727E-05  0.128E-04  0.773E-05  0.163E-04  0.221E-04
  -5.599  0.632E-04  0.713E-05  0.120E-04  0.750E-05  0.157E-04  0.209E-04
  -5.589  0.604E-04  0.702E-05  0.112E-04  0.730E-05  0.152E-04  0.197E-04
  -5.579  0.578E-04  0.695E-05  0.105E-04  0.711E-05  0.148E-04  0.186E-04
  -5.569  0.517E-04  0.662E-05  0.894E-05  0.605E-05  0.137E-04  0.164E-04
  -5.559  0.504E-04  0.660E-05  0.860E-05  0.589E-05  0.135E-04  0.159E-04
  -5.549  0.492E-04  0.658E-05  0.826E-05  0.573E-05  0.132E-04  0.154E-04
  -5.539  0.480E-04  0.658E-05  0.792E-05  0.557E-05  0.130E-04  0.149E-04
  -5.529  0.468E-04  0.658E-05  0.759E-05  0.541E-05  0.127E-04  0.145E-04
  -5.519  0.456E-04  0.658E-05  0.725E-05  0.526E-05  0.125E-04  0.140E-04
  -5.509  0.444E-04  0.659E-05  0.692E-05  0.511E-05  0.122E-04  0.135E-04
  -5.499  0.432E-04  0.661E-05  0.658E-05  0.496E-05  0.120E-04  0.131E-04
  -5.489  0.421E-04  0.663E-05  0.625E-05  0.482E-05  0.118E-04  0.126E-04
  -5.479  0.409E-04  0.666E-05  0.592E-05  0.468E-05  0.116E-04  0.121E-04
  -5.469  0.398E-04  0.669E-05  0.559E-05  0.454E-05  0.113E-04  0.117E-04
  -5.459  0.387E-04  0.673E-05  0.526E-05  0.441E-05  0.111E-04  0.112E-04
  -5.449  0.377E-04  0.678E-05  0.493E-05  0.427E-05  0.109E-04  0.108E-04
  -5.439  0.366E-04  0.683E-05  0.461E-05  0.414E-05  0.107E-04  0.103E-04
  -5.429  0.356E-04  0.688E-05  0.428E-05  0.401E-05  0.105E-04  0.990E-05
  -5.419  0.346E-04  0.695E-05  0.396E-05  0.389E-05  0.103E-04  0.946E-05
  -5.409  0.336E-04  0.702E-05  0.363E-05  0.377E-05  0.101E-04  0.902E-05
  -5.399  0.978E-04  0.263E-04  0.725E-05  0.119E-04  0.325E-04  0.199E-04
  -5.389  0.448E-04  0.112E-04  0.374E-05  0.467E-05  0.147E-04  0.105E-04
  -5.379  0.196E-04  0.283E-05  0.280E-05  0.237E-05  0.530E-05  0.635E-05
  -5.369  0.235E-04  0.338E-05  0.324E-05  0.261E-05  0.660E-05  0.772E-05
  -5.359  0.432E-04  0.641E-05  0.505E-05  0.409E-05  0.132E-04  0.144E-04
  -5.349  0.779E-04  0.120E-04  0.793E-05  0.686E-05  0.251E-04  0.260E-04
  -5.339  0.128E-03  0.202E-04  0.119E-04  0.109E-04  0.423E-04  0.425E-04
  -5.329  0.193E-03  0.309E-04  0.169E-04  0.163E-04  0.647E-04  0.639E-04
  -5.319  0.273E-03  0.442E-04  0.231E-04  0.229E-04  0.923E-04  0.902E-04
  -5.309  0.368E-03  0.600E-04  0.303E-04  0.308E-04  0.125E-03  0.121E-03
  -5.299  0.478E-03  0.785E-04  0.386E-04  0.401E-04  0.163E-03  0.157E-03
  -5.289  0.603E-03  0.995E-04  0.479E-04  0.506E-04  0.207E-03  0.198E-03
  -5.279  0.744E-03  0.123E-03  0.584E-04  0.623E-04  0.256E-03  0.244E-03
  -5.269  0.162E-02  0.323E-03  0.996E-04  0.137E-03  0.560E-03  0.498E-03
  -5.259  0.368E-02  0.817E-03  0.189E-03  0.305E-03  0.128E-02  0.109E-02
  -5.249  0.459E-02  0.104E-02  0.230E-03  0.363E-03  0.159E-02  0.136E-02
  -5.239  0.483E-02  0.107E-02  0.255E-03  0.352E-03  0.168E-02  0.147E-02
  -5.229  0.555E-02  0.114E-02  0.335E-03  0.405E-03  0.193E-02  0.174E-02
  -5.219  0.635E-02  0.116E-02  0.440E-03  0.505E-03  0.221E-02  0.203E-02
  -5.209  0.435E-02  0.828E-03  0.289E-03  0.332E-03  0.152E-02  0.138E-02
  -5.199  0.339E-02  0.660E-03  0.222E-03  0.250E-03  0.116E-02  0.110E-02
  -5.189  0.347E-02  0.676E-03  0.228E-03  0.253E-03  0.116E-02  0.115E-02
  -5.179  0.412E-02  0.815E-03  0.276E-03  0.311E-03  0.138E-02  0.134E-02
  -5.169  0.565E-02  0.117E-02  0.361E-03  0.456E-03  0.193E-02  0.172E-02
  -5.159  0.418E-02  0.873E-03  0.265E-03  0.309E-03  0.140E-02  0.133E-02
  -5.149  0.284E-02  0.576E-03  0.184E-03  0.180E-03  0.929E-03  0.974E-03
  -5.139  0.288E-02  0.553E-03  0.200E-03  0.187E-03  0.957E-03  0.986E-03
  -5.129  0.277E-02  0.516E-03  0.200E-03  0.183E-03  0.927E-03  0.942E-03
  -5.119  0.265E-02  0.482E-03  0.197E-03  0.179E-03  0.894E-03  0.897E-03
  -5.109  0.255E-02  0.452E-03  0.196E-03  0.177E-03  0.867E-03  0.859E-03
  -5.099  0.247E-02  0.426E-03  0.197E-03  0.178E-03  0.845E-03  0.827E-03
  -5.089  0.249E-02  0.431E-03  0.199E-03  0.181E-03  0.844E-03  0.834E-03
  -5.079  0.252E-02  0.437E-03  0.203E-03  0.185E-03  0.862E-03  0.834E-03
  -5.069  0.250E-02  0.429E-03  0.207E-03  0.189E-03  0.850E-03  0.827E-03
  -5.059  0.248E-02  0.420E-03  0.210E-03  0.193E-03  0.839E-03  0.818E-03
  -5.049  0.245E-02  0.410E-03  0.212E-03  0.196E-03  0.827E-03  0.808E-03
  -5.039  0.243E-02  0.399E-03  0.215E-03  0.199E-03  0.816E-03  0.798E-03
  -5.029  0.239E-02  0.385E-03  0.216E-03  0.201E-03  0.802E-03  0.786E-03
  -5.019  0.234E-02  0.369E-03  0.216E-03  0.202E-03  0.786E-03  0.769E-03
  -5.009  0.240E-02  0.366E-03  0.228E-03  0.214E-03  0.804E-03  0.788E-03
  -4.999  0.271E-02  0.396E-03  0.267E-03  0.254E-03  0.908E-03  0.889E-03
  -4.989  0.328E-02  0.460E-03  0.331E-03  0.322E-03  0.110E-02  0.107E-02
  -4.979  0.412E-02  0.563E-03  0.423E-03  0.418E-03  0.138E-02  0.134E-02
  -4.969  0.524E-02  0.709E-03  0.541E-03  0.543E-03  0.175E-02  0.169E-02
  -4.959  0.663E-02  0.898E-03  0.686E-03  0.696E-03  0.221E-02  0.214E-02
  -4.949  0.795E-03  0.153E-03  0.647E-04  0.387E-04  0.307E-03  0.233E-03
  -4.939  0.126E-02  0.239E-03  0.704E-04  0.418E-04  0.446E-03  0.466E-03
  -4.929  0.810E-03  0.164E-03  0.681E-04  0.413E-04  0.309E-03  0.227E-03
  -4.919  0.485E-03  0.963E-04  0.428E-04  0.284E-04  0.182E-03  0.135E-03
  -4.909  0.246E-03  0.465E-04  0.237E-04  0.177E-04  0.905E-04  0.670E-04
  -4.899  0.875E-04  0.146E-04  0.991E-05  0.850E-05  0.322E-04  0.223E-04
  -4.889  0.169E-02  0.657E-03  0.473E-04  0.188E-03  0.673E-03  0.126E-03
  -4.879  0.271E-02  0.108E-02  0.767E-04  0.347E-03  0.110E-02  0.109E-03
  -4.869  0.104E-02  0.414E-03  0.285E-04  0.125E-03  0.422E-03  0.546E-04
  -4.859  0.309E-03  0.107E-03  0.445E-05  0.417E-05  0.116E-03  0.780E-04
  -4.849  0.145E-02  0.153E-03  0.248E-03  0.738E-04  0.219E-03  0.755E-03
  -4.839  0.248E-02  0.197E-03  0.445E-03  0.150E-03  0.374E-03  0.131E-02
  -4.829  0.293E-02  0.221E-03  0.517E-03  0.192E-03  0.480E-03  0.152E-02
  -4.819  0.279E-02  0.223E-03  0.464E-03  0.195E-03  0.529E-03  0.138E-02
  -4.809  0.208E-02  0.209E-03  0.287E-03  0.163E-03  0.523E-03  0.900E-03
  -4.799  0.993E-03  0.192E-03  0.257E-04  0.992E-04  0.478E-03  0.198E-03
  -4.789  0.119E-02  0.237E-03  0.397E-04  0.111E-03  0.550E-03  0.252E-03
  -4.779  0.144E-02  0.308E-03  0.575E-04  0.122E-03  0.637E-03  0.319E-03
  -4.769  0.174E-02  0.401E-03  0.757E-04  0.130E-03  0.734E-03  0.398E-03
  -4.759  0.114E-02  0.158E-03  0.846E-04  0.127E-03  0.477E-03  0.289E-03
  -4.749  0.117E-02  0.156E-03  0.104E-03  0.130E-03  0.461E-03  0.319E-03
  -4.739  0.120E-02  0.157E-03  0.125E-03  0.131E-03  0.439E-03  0.350E-03
  -4.729  0.123E-02  0.160E-03  0.146E-03  0.129E-03  0.412E-03  0.383E-03
  -4.719  0.125E-02  0.163E-03  0.170E-03  0.126E-03  0.377E-03  0.416E-03
  -4.709  0.127E-02  0.167E-03  0.194E-03  0.119E-03  0.336E-03  0.451E-03
  -4.699  0.128E-02  0.172E-03  0.219E-03  0.111E-03  0.288E-03  0.486E-03
  -4.689  0.154E-02  0.226E-03  0.244E-03  0.145E-03  0.370E-03  0.554E-03
  -4.679  0.238E-02  0.357E-03  0.262E-03  0.287E-03  0.786E-03  0.685E-03
  -4.669  0.310E-02  0.447E-03  0.253E-03  0.397E-03  0.120E-02  0.795E-03
  -4.659  0.323E-02  0.456E-03  0.216E-03  0.424E-03  0.135E-02  0.780E-03
  -4.649  0.280E-02  0.396E-03  0.156E-03  0.373E-03  0.123E-02  0.645E-03
  -4.639  0.181E-02  0.264E-03  0.733E-04  0.245E-03  0.841E-03  0.390E-03
  -4.629  0.475E-03  0.870E-04  0.137E-04  0.578E-04  0.210E-03  0.106E-03
  -4.619  0.516E-03  0.232E-03  0.374E-04  0.198E-04  0.108E-03  0.119E-03
  -4.609  0.119E-02  0.387E-03  0.105E-03  0.712E-04  0.284E-03  0.345E-03
  -4.599  0.148E-02  0.335E-03  0.106E-03  0.986E-04  0.467E-03  0.478E-03
  -4.589  0.437E-03  0.119E-03  0.285E-04  0.233E-04  0.126E-03  0.141E-03
  -4.579  0.459E-03  0.124E-03  0.303E-04  0.252E-04  0.133E-03  0.148E-03
  -4.569  0.496E-03  0.129E-03  0.389E-04  0.340E-04  0.140E-03  0.154E-03
  -4.559  0.728E-03  0.136E-03  0.135E-03  0.133E-03  0.158E-03  0.167E-03
  -4.549  0.100E-02  0.148E-03  0.235E-03  0.236E-03  0.190E-03  0.191E-03
  -4.539  0.131E-02  0.164E-03  0.339E-03  0.343E-03  0.235E-03  0.228E-03
  -4.529  0.166E-02  0.185E-03  0.448E-03  0.455E-03  0.292E-03  0.276E-03
  -4.519  0.190E-02  0.167E-03  0.550E-03  0.567E-03  0.356E-03  0.260E-03
  -4.509  0.242E-02  0.186E-03  0.720E-03  0.746E-03  0.478E-03  0.290E-03
  -4.499  0.322E-02  0.213E-03  0.999E-03  0.104E-02  0.603E-03  0.365E-03
  -4.489  0.422E-02  0.226E-03  0.138E-02  0.144E-02  0.724E-03  0.449E-03
  -4.479  0.704E-02  0.256E-03  0.258E-02  0.261E-02  0.758E-03  0.833E-03
  -4.469  0.268E-02  0.250E-03  0.616E-03  0.623E-03  0.616E-03  0.574E-03
  -4.459  0.207E-02  0.282E-03  0.257E-03  0.259E-03  0.678E-03  0.590E-03
  -4.449  0.242E-02  0.327E-03  0.304E-03  0.305E-03  0.787E-03  0.692E-03
  -4.439  0.413E-02  0.557E-03  0.526E-03  0.525E-03  0.134E-02  0.118E-02
  -4.429  0.327E-02  0.449E-03  0.419E-03  0.416E-03  0.106E-02  0.929E-03
  -4.419  0.261E-02  0.362E-03  0.342E-03  0.337E-03  0.842E-03  0.731E-03
  -4.409  0.216E-02  0.296E-03  0.294E-03  0.289E-03  0.694E-03  0.589E-03
  -4.399  0.191E-02  0.252E-03  0.274E-03  0.271E-03  0.613E-03  0.504E-03
  -4.389  0.188E-02  0.241E-03  0.285E-03  0.281E-03  0.599E-03  0.471E-03
  -4.379  0.188E-02  0.237E-03  0.302E-03  0.297E-03  0.596E-03  0.445E-03
  -4.369  0.187E-02  0.227E-03  0.321E-03  0.315E-03  0.593E-03  0.416E-03
  -4.359  0.203E-02  0.243E-03  0.374E-03  0.350E-03  0.647E-03  0.411E-03
  -4.349  0.268E-02  0.245E-03  0.609E-03  0.580E-03  0.754E-03  0.488E-03
  -4.339  0.353E-02  0.234E-03  0.919E-03  0.894E-03  0.875E-03  0.607E-03
  -4.329  0.399E-02  0.215E-03  0.108E-02  0.106E-02  0.932E-03  0.690E-03
  -4.319  0.407E-02  0.207E-03  0.110E-02  0.107E-02  0.944E-03  0.742E-03
  -4.309  0.423E-02  0.206E-03  0.113E-02  0.110E-02  0.975E-03  0.811E-03
  -4.299  0.450E-02  0.201E-03  0.121E-02  0.118E-02  0.101E-02  0.893E-03
  -4.289  0.451E-02  0.176E-03  0.127E-02  0.124E-02  0.932E-03  0.892E-03
  -4.279  0.445E-02  0.149E-03  0.131E-02  0.128E-02  0.821E-03  0.887E-03
  -4.269  0.431E-02  0.118E-03  0.134E-02  0.130E-02  0.678E-03  0.878E-03
  -4.259  0.386E-02  0.876E-04  0.126E-02  0.121E-02  0.425E-03  0.873E-03
  -4.249  0.142E-02  0.705E-04  0.433E-03  0.451E-03  0.261E-03  0.207E-03
  -4.239  0.140E-02  0.665E-04  0.429E-03  0.446E-03  0.250E-03  0.205E-03
  -4.229  0.201E-02  0.152E-03  0.506E-03  0.544E-03  0.516E-03  0.292E-03
  -4.219  0.203E-02  0.159E-03  0.504E-03  0.524E-03  0.484E-03  0.356E-03
  -4.209  0.198E-02  0.164E-03  0.485E-03  0.493E-03  0.461E-03  0.379E-03
  -4.199  0.189E-02  0.167E-03  0.453E-03  0.456E-03  0.444E-03  0.370E-03
  -4.189  0.184E-02  0.174E-03  0.427E-03  0.427E-03  0.436E-03  0.371E-03
  -4.179  0.183E-02  0.187E-03  0.410E-03  0.409E-03  0.440E-03  0.387E-03
  -4.169  0.188E-02  0.207E-03  0.401E-03  0.400E-03  0.454E-03  0.418E-03
  -4.159  0.198E-02  0.232E-03  0.401E-03  0.402E-03  0.479E-03  0.464E-03
  -4.149  0.212E-02  0.262E-03  0.409E-03  0.414E-03  0.514E-03  0.524E-03
  -4.139  0.228E-02  0.292E-03  0.421E-03  0.431E-03  0.551E-03  0.581E-03
  -4.129  0.246E-02  0.326E-03  0.440E-03  0.454E-03  0.597E-03  0.645E-03
  -4.119  0.269E-02  0.368E-03  0.466E-03  0.485E-03  0.654E-03  0.719E-03
  -4.109  0.275E-02  0.352E-03  0.481E-03  0.514E-03  0.669E-03  0.731E-03
  -4.099  0.193E-02  0.196E-03  0.394E-03  0.416E-03  0.447E-03  0.472E-03
  -4.089  0.199E-02  0.197E-03  0.412E-03  0.438E-03  0.463E-03  0.477E-03
  -4.079  0.204E-02  0.198E-03  0.431E-03  0.459E-03  0.477E-03  0.479E-03
  -4.069  0.209E-02  0.192E-03  0.454E-03  0.484E-03  0.483E-03  0.478E-03
  -4.059  0.217E-02  0.192E-03  0.482E-03  0.512E-03  0.497E-03  0.484E-03
  -4.049  0.224E-02  0.193E-03  0.509E-03  0.539E-03  0.509E-03  0.487E-03
  -4.039  0.230E-02  0.192E-03  0.535E-03  0.564E-03  0.520E-03  0.488E-03
  -4.029  0.236E-02  0.192E-03  0.560E-03  0.589E-03  0.530E-03  0.486E-03
  -4.019  0.241E-02  0.190E-03  0.584E-03  0.613E-03  0.539E-03  0.481E-03
  -4.009  0.245E-02  0.189E-03  0.607E-03  0.635E-03  0.545E-03  0.474E-03
  -3.999  0.249E-02  0.187E-03  0.630E-03  0.657E-03  0.551E-03  0.464E-03
  -3.989  0.348E-02  0.198E-03  0.987E-03  0.911E-03  0.472E-03  0.908E-03
  -3.979  0.295E-02  0.164E-03  0.844E-03  0.781E-03  0.410E-03  0.754E-03
  -3.969  0.248E-02  0.133E-03  0.714E-03  0.664E-03  0.353E-03  0.616E-03
  -3.959  0.244E-02  0.193E-03  0.634E-03  0.586E-03  0.371E-03  0.657E-03
  -3.949  0.215E-02  0.203E-03  0.541E-03  0.492E-03  0.345E-03  0.566E-03
  -3.939  0.191E-02  0.207E-03  0.466E-03  0.417E-03  0.329E-03  0.492E-03
  -3.929  0.172E-02  0.136E-03  0.420E-03  0.382E-03  0.348E-03  0.436E-03
  -3.919  0.165E-02  0.134E-03  0.388E-03  0.362E-03  0.370E-03  0.396E-03
  -3.909  0.163E-02  0.139E-03  0.373E-03  0.355E-03  0.397E-03  0.371E-03
  -3.899  0.168E-02  0.151E-03  0.374E-03  0.363E-03  0.427E-03  0.361E-03
  -3.889  0.174E-02  0.167E-03  0.383E-03  0.378E-03  0.458E-03  0.358E-03
  -3.879  0.180E-02  0.181E-03  0.386E-03  0.395E-03  0.489E-03  0.351E-03
  -3.869  0.185E-02  0.192E-03  0.383E-03  0.412E-03  0.519E-03  0.341E-03
  -3.859  0.188E-02  0.201E-03  0.374E-03  0.431E-03  0.550E-03  0.327E-03
  -3.849  0.190E-02  0.204E-03  0.358E-03  0.451E-03  0.580E-03  0.306E-03
  -3.839  0.183E-02  0.179E-03  0.318E-03  0.460E-03  0.603E-03  0.266E-03
  -3.829  0.169E-02  0.139E-03  0.255E-03  0.457E-03  0.618E-03  0.225E-03
  -3.819  0.156E-02  0.101E-03  0.191E-03  0.450E-03  0.626E-03  0.188E-03
  -3.809  0.788E-03  0.526E-04  0.237E-03  0.653E-04  0.154E-03  0.280E-03
  -3.799  0.143E-02  0.833E-04  0.491E-03  0.682E-04  0.147E-03  0.641E-03
  -3.789  0.214E-02  0.111E-03  0.723E-03  0.214E-03  0.164E-03  0.927E-03
  -3.779  0.270E-02  0.136E-03  0.883E-03  0.394E-03  0.211E-03  0.108E-02
  -3.769  0.295E-02  0.157E-03  0.925E-03  0.545E-03  0.267E-03  0.106E-02
  -3.759  0.291E-02  0.172E-03  0.850E-03  0.668E-03  0.332E-03  0.883E-03
  -3.749  0.258E-02  0.183E-03  0.661E-03  0.763E-03  0.418E-03  0.554E-03
  -3.739  0.661E-02  0.230E-03  0.164E-02  0.270E-02  0.104E-02  0.100E-02
  -3.729  0.361E-02  0.100E-03  0.927E-03  0.148E-02  0.553E-03  0.549E-03
  -3.719  0.155E-02  0.820E-04  0.424E-03  0.473E-03  0.298E-03  0.271E-03
  -3.709  0.141E-02  0.761E-04  0.396E-03  0.399E-03  0.306E-03  0.232E-03
  -3.699  0.131E-02  0.713E-04  0.376E-03  0.340E-03  0.316E-03  0.206E-03
  -3.689  0.135E-02  0.693E-04  0.387E-03  0.322E-03  0.353E-03  0.217E-03
  -3.679  0.161E-02  0.709E-04  0.453E-03  0.376E-03  0.430E-03  0.280E-03
  -3.669  0.211E-02  0.766E-04  0.573E-03  0.498E-03  0.552E-03  0.407E-03
  -3.659  0.280E-02  0.854E-04  0.740E-03  0.676E-03  0.716E-03  0.584E-03
  -3.649  0.368E-02  0.975E-04  0.950E-03  0.902E-03  0.924E-03  0.808E-03
  -3.639  0.474E-02  0.113E-03  0.120E-02  0.117E-02  0.118E-02  0.108E-02
  -3.629  0.146E-02  0.568E-04  0.385E-03  0.371E-03  0.358E-03  0.292E-03
  -3.619  0.154E-02  0.572E-04  0.395E-03  0.392E-03  0.376E-03  0.317E-03
  -3.609  0.163E-02  0.596E-04  0.408E-03  0.414E-03  0.400E-03  0.347E-03
  -3.599  0.173E-02  0.618E-04  0.424E-03  0.436E-03  0.424E-03  0.380E-03
  -3.589  0.183E-02  0.638E-04  0.441E-03  0.458E-03  0.450E-03  0.414E-03
  -3.579  0.193E-02  0.657E-04  0.461E-03  0.480E-03  0.477E-03  0.450E-03
  -3.569  0.205E-02  0.674E-04  0.483E-03  0.502E-03  0.504E-03  0.488E-03
  -3.559  0.216E-02  0.690E-04  0.507E-03  0.524E-03  0.533E-03  0.528E-03
  -3.549  0.228E-02  0.704E-04  0.534E-03  0.546E-03  0.563E-03  0.570E-03
  -3.539  0.249E-02  0.732E-04  0.584E-03  0.590E-03  0.616E-03  0.631E-03
  -3.529  0.286E-02  0.785E-04  0.673E-03  0.675E-03  0.708E-03  0.726E-03
  -3.519  0.339E-02  0.874E-04  0.804E-03  0.800E-03  0.842E-03  0.857E-03
  -3.509  0.413E-02  0.102E-03  0.983E-03  0.968E-03  0.104E-02  0.104E-02
  -3.499  0.508E-02  0.121E-03  0.121E-02  0.118E-02  0.129E-02  0.127E-02
  -3.489  0.332E-02  0.931E-04  0.738E-03  0.666E-03  0.944E-03  0.878E-03
  -3.479  0.364E-02  0.103E-03  0.790E-03  0.693E-03  0.108E-02  0.979E-03
  -3.469  0.308E-02  0.781E-04  0.728E-03  0.662E-03  0.831E-03  0.780E-03
  -3.459  0.316E-02  0.782E-04  0.739E-03  0.681E-03  0.857E-03  0.801E-03
  -3.449  0.323E-02  0.782E-04  0.750E-03  0.698E-03  0.879E-03  0.821E-03
  -3.439  0.329E-02  0.780E-04  0.759E-03  0.713E-03  0.897E-03  0.841E-03
  -3.429  0.334E-02  0.778E-04  0.767E-03  0.727E-03  0.911E-03  0.860E-03
  -3.419  0.339E-02  0.774E-04  0.774E-03  0.739E-03  0.922E-03  0.880E-03
  -3.409  0.343E-02  0.769E-04  0.779E-03  0.750E-03  0.928E-03  0.899E-03
  -3.399  0.347E-02  0.763E-04  0.784E-03  0.759E-03  0.931E-03  0.918E-03
  -3.389  0.350E-02  0.757E-04  0.787E-03  0.766E-03  0.930E-03  0.937E-03
  -3.379  0.352E-02  0.749E-04  0.788E-03  0.772E-03  0.925E-03  0.955E-03
  -3.369  0.353E-02  0.740E-04  0.790E-03  0.777E-03  0.917E-03  0.975E-03
  -3.359  0.357E-02  0.741E-04  0.805E-03  0.784E-03  0.910E-03  0.100E-02
  -3.349  0.378E-02  0.936E-04  0.830E-03  0.846E-03  0.971E-03  0.104E-02
  -3.339  0.392E-02  0.110E-03  0.850E-03  0.878E-03  0.102E-02  0.106E-02
  -3.329  0.404E-02  0.124E-03  0.871E-03  0.911E-03  0.106E-02  0.108E-02
  -3.319  0.414E-02  0.136E-03  0.890E-03  0.938E-03  0.109E-02  0.109E-02
  -3.309  0.422E-02  0.145E-03  0.907E-03  0.960E-03  0.112E-02  0.110E-02
  -3.299  0.428E-02  0.151E-03  0.922E-03  0.977E-03  0.114E-02  0.110E-02
  -3.289  0.432E-02  0.155E-03  0.936E-03  0.988E-03  0.115E-02  0.110E-02
  -3.279  0.434E-02  0.156E-03  0.948E-03  0.993E-03  0.115E-02  0.109E-02
  -3.269  0.434E-02  0.154E-03  0.958E-03  0.991E-03  0.115E-02  0.108E-02
  -3.259  0.426E-02  0.122E-03  0.932E-03  0.988E-03  0.116E-02  0.106E-02
  -3.249  0.434E-02  0.123E-03  0.938E-03  0.102E-02  0.120E-02  0.107E-02
  -3.239  0.436E-02  0.125E-03  0.942E-03  0.102E-02  0.120E-02  0.107E-02
  -3.229  0.430E-02  0.126E-03  0.942E-03  0.998E-03  0.116E-02  0.107E-02
  -3.219  0.430E-02  0.128E-03  0.951E-03  0.998E-03  0.115E-02  0.107E-02
  -3.209  0.432E-02  0.130E-03  0.958E-03  0.101E-02  0.115E-02  0.107E-02
  -3.199  0.434E-02  0.133E-03  0.964E-03  0.102E-02  0.116E-02  0.107E-02
  -3.189  0.434E-02  0.135E-03  0.968E-03  0.103E-02  0.115E-02  0.106E-02
  -3.179  0.435E-02  0.138E-03  0.974E-03  0.103E-02  0.115E-02  0.105E-02
  -3.169  0.437E-02  0.141E-03  0.981E-03  0.104E-02  0.116E-02  0.105E-02
  -3.159  0.437E-02  0.144E-03  0.986E-03  0.105E-02  0.116E-02  0.104E-02
  -3.149  0.438E-02  0.147E-03  0.990E-03  0.106E-02  0.115E-02  0.103E-02
  -3.139  0.440E-02  0.147E-03  0.101E-02  0.106E-02  0.116E-02  0.103E-02
  -3.129  0.446E-02  0.149E-03  0.104E-02  0.107E-02  0.117E-02  0.104E-02
  -3.119  0.455E-02  0.152E-03  0.107E-02  0.108E-02  0.119E-02  0.106E-02
  -3.109  0.466E-02  0.155E-03  0.111E-02  0.110E-02  0.122E-02  0.108E-02
  -3.099  0.477E-02  0.158E-03  0.115E-02  0.112E-02  0.125E-02  0.110E-02
  -3.089  0.490E-02  0.161E-03  0.119E-02  0.115E-02  0.128E-02  0.112E-02
  -3.079  0.503E-02  0.165E-03  0.123E-02  0.117E-02  0.132E-02  0.115E-02
  -3.069  0.518E-02  0.168E-03  0.127E-02  0.120E-02  0.136E-02  0.118E-02
  -3.059  0.517E-02  0.168E-03  0.131E-02  0.117E-02  0.136E-02  0.117E-02
  -3.049  0.512E-02  0.166E-03  0.135E-02  0.111E-02  0.135E-02  0.114E-02
  -3.039  0.484E-02  0.154E-03  0.128E-02  0.106E-02  0.128E-02  0.107E-02
  -3.029  0.633E-02  0.164E-03  0.162E-02  0.148E-02  0.166E-02  0.140E-02
  -3.019  0.662E-02  0.309E-03  0.163E-02  0.154E-02  0.169E-02  0.145E-02
  -3.009  0.566E-02  0.123E-03  0.129E-02  0.141E-02  0.157E-02  0.127E-02
  -2.999  0.558E-02  0.117E-03  0.124E-02  0.139E-02  0.157E-02  0.128E-02
  -2.989  0.550E-02  0.111E-03  0.119E-02  0.136E-02  0.156E-02  0.127E-02
  -2.979  0.539E-02  0.105E-03  0.114E-02  0.133E-02  0.155E-02  0.127E-02
  -2.969  0.527E-02  0.996E-04  0.108E-02  0.129E-02  0.154E-02  0.125E-02
  -2.959  0.513E-02  0.945E-04  0.102E-02  0.124E-02  0.153E-02  0.123E-02
  -2.949  0.506E-02  0.102E-03  0.981E-03  0.122E-02  0.153E-02  0.122E-02
  -2.939  0.508E-02  0.973E-04  0.963E-03  0.122E-02  0.157E-02  0.123E-02
  -2.929  0.509E-02  0.933E-04  0.945E-03  0.121E-02  0.160E-02  0.124E-02
  -2.919  0.508E-02  0.899E-04  0.923E-03  0.120E-02  0.163E-02  0.124E-02
  -2.909  0.683E-02  0.110E-03  0.113E-02  0.171E-02  0.238E-02  0.150E-02
  -2.899  0.602E-02  0.101E-03  0.100E-02  0.146E-02  0.203E-02  0.141E-02
  -2.889  0.506E-02  0.922E-04  0.826E-03  0.123E-02  0.169E-02  0.122E-02
  -2.879  0.442E-02  0.865E-04  0.702E-03  0.106E-02  0.147E-02  0.110E-02
  -2.869  0.358E-02  0.765E-04  0.600E-03  0.889E-03  0.111E-02  0.905E-03
  -2.859  0.331E-02  0.658E-04  0.639E-03  0.855E-03  0.971E-03  0.779E-03
  -2.849  0.381E-02  0.680E-04  0.790E-03  0.102E-02  0.112E-02  0.809E-03
  -2.839  0.431E-02  0.774E-04  0.928E-03  0.117E-02  0.127E-02  0.857E-03
  -2.829  0.453E-02  0.927E-04  0.986E-03  0.123E-02  0.134E-02  0.879E-03
  -2.819  0.454E-02  0.109E-03  0.981E-03  0.123E-02  0.135E-02  0.874E-03
  -2.809  0.453E-02  0.124E-03  0.967E-03  0.121E-02  0.136E-02  0.876E-03
  -2.799  0.488E-02  0.145E-03  0.970E-03  0.125E-02  0.147E-02  0.103E-02
  -2.789  0.990E-02  0.313E-03  0.940E-03  0.317E-02  0.405E-02  0.143E-02
  -2.779  0.522E-02  0.191E-03  0.856E-03  0.103E-02  0.161E-02  0.153E-02
  -2.769  0.608E-02  0.242E-03  0.914E-03  0.111E-02  0.190E-02  0.192E-02
  -2.759  0.691E-02  0.301E-03  0.961E-03  0.117E-02  0.219E-02  0.229E-02
  -2.749  0.951E-02  0.369E-03  0.134E-02  0.183E-02  0.322E-02  0.275E-02
  -2.739  0.914E-02  0.434E-03  0.118E-02  0.155E-02  0.305E-02  0.293E-02
  -2.729  0.883E-02  0.500E-03  0.103E-02  0.129E-02  0.291E-02  0.309E-02
  -2.719  0.857E-02  0.567E-03  0.914E-03  0.107E-02  0.279E-02  0.323E-02
  -2.709  0.207E-01  0.446E-02  0.987E-03  0.102E-02  0.665E-02  0.757E-02
  -2.699  0.111E-01  0.179E-02  0.843E-03  0.832E-03  0.359E-02  0.404E-02
  -2.689  0.102E-01  0.120E-02  0.842E-03  0.774E-03  0.320E-02  0.421E-02
  -2.679  0.117E-01  0.139E-02  0.893E-03  0.786E-03  0.381E-02  0.485E-02
  -2.669  0.138E-01  0.167E-02  0.990E-03  0.860E-03  0.463E-02  0.568E-02
  -2.659  0.182E-01  0.203E-02  0.131E-02  0.141E-02  0.631E-02  0.712E-02
  -2.649  0.201E-01  0.240E-02  0.138E-02  0.145E-02  0.713E-02  0.773E-02
  -2.639  0.270E-01  0.293E-02  0.312E-02  0.151E-02  0.833E-02  0.111E-01
  -2.629  0.138E-01  0.130E-02  0.157E-02  0.140E-02  0.489E-02  0.467E-02
  -2.619  0.116E-01  0.868E-03  0.105E-02  0.157E-02  0.499E-02  0.316E-02
  -2.609  0.618E-02  0.403E-03  0.512E-03  0.929E-03  0.286E-02  0.148E-02
  -2.599  0.439E-02  0.344E-03  0.310E-03  0.650E-03  0.201E-02  0.108E-02
  -2.589  0.274E-02  0.325E-03  0.160E-03  0.282E-03  0.993E-03  0.984E-03
  -2.579  0.250E-02  0.297E-03  0.140E-03  0.261E-03  0.886E-03  0.917E-03
  -2.569  0.227E-02  0.278E-03  0.123E-03  0.236E-03  0.775E-03  0.860E-03
  -2.559  0.169E-01  0.322E-03  0.478E-02  0.425E-03  0.849E-03  0.106E-01
  -2.549  0.148E-02  0.249E-03  0.665E-04  0.934E-04  0.514E-03  0.560E-03
  -2.539  0.793E-02  0.303E-03  0.115E-02  0.237E-02  0.831E-03  0.327E-02
  -2.529  0.333E-02  0.354E-03  0.331E-03  0.282E-03  0.102E-02  0.134E-02
  -2.519  0.318E-02  0.428E-03  0.275E-03  0.262E-03  0.103E-02  0.118E-02
  -2.509  0.133E-01  0.661E-03  0.149E-02  0.163E-02  0.482E-02  0.465E-02
  -2.499  0.134E-01  0.816E-03  0.142E-02  0.158E-02  0.486E-02  0.469E-02
  -2.489  0.132E-01  0.907E-03  0.135E-02  0.153E-02  0.480E-02  0.464E-02
  -2.479  0.128E-01  0.925E-03  0.127E-02  0.146E-02  0.464E-02  0.448E-02
  -2.469  0.120E-01  0.869E-03  0.120E-02  0.138E-02  0.438E-02  0.421E-02
  -2.459  0.110E-01  0.738E-03  0.113E-02  0.128E-02  0.400E-02  0.383E-02
  -2.449  0.962E-02  0.533E-03  0.105E-02  0.118E-02  0.352E-02  0.333E-02
  -2.439  0.805E-02  0.277E-03  0.974E-03  0.106E-02  0.297E-02  0.277E-02
  -2.429  0.780E-02  0.299E-03  0.950E-03  0.101E-02  0.285E-02  0.269E-02
  -2.419  0.751E-02  0.326E-03  0.871E-03  0.100E-02  0.277E-02  0.255E-02
  -2.409  0.748E-02  0.379E-03  0.749E-03  0.112E-02  0.285E-02  0.238E-02
  -2.399  0.722E-02  0.400E-03  0.546E-03  0.125E-02  0.294E-02  0.209E-02
  -2.389  0.104E-01  0.528E-03  0.171E-02  0.208E-02  0.316E-02  0.297E-02
  -2.379  0.534E-01  0.602E-03  0.110E-01  0.855E-02  0.134E-01  0.199E-01
  -2.369  0.727E-02  0.211E-03  0.150E-02  0.123E-02  0.188E-02  0.246E-02
  -2.359  0.500E-02  0.149E-03  0.114E-02  0.793E-03  0.120E-02  0.172E-02
  -2.349  0.105E-01  0.620E-03  0.278E-02  0.231E-02  0.206E-02  0.273E-02
  -2.339  0.692E-02  0.622E-03  0.171E-02  0.141E-02  0.154E-02  0.164E-02
  -2.329  0.590E-02  0.708E-03  0.797E-03  0.101E-02  0.174E-02  0.165E-02
  -2.319  0.628E-02  0.854E-03  0.645E-03  0.702E-03  0.211E-02  0.196E-02
  -2.309  0.706E-02  0.987E-03  0.619E-03  0.668E-03  0.251E-02  0.228E-02
  -2.299  0.643E-02  0.840E-03  0.521E-03  0.566E-03  0.238E-02  0.212E-02
  -2.289  0.510E-02  0.555E-03  0.397E-03  0.458E-03  0.198E-02  0.172E-02
  -2.279  0.487E-02  0.493E-03  0.320E-03  0.451E-03  0.196E-02  0.165E-02
  -2.269  0.464E-02  0.445E-03  0.237E-03  0.455E-03  0.194E-02  0.156E-02
  -2.259  0.453E-02  0.400E-03  0.217E-03  0.475E-03  0.194E-02  0.150E-02
  -2.249  0.467E-02  0.362E-03  0.268E-03  0.523E-03  0.197E-02  0.155E-02
  -2.239  0.485E-02  0.328E-03  0.330E-03  0.581E-03  0.199E-02  0.162E-02
  -2.229  0.498E-02  0.295E-03  0.393E-03  0.632E-03  0.197E-02  0.168E-02
  -2.219  0.505E-02  0.263E-03  0.459E-03  0.677E-03  0.192E-02  0.173E-02
  -2.209  0.507E-02  0.231E-03  0.526E-03  0.716E-03  0.184E-02  0.176E-02
  -2.199  0.505E-02  0.201E-03  0.595E-03  0.749E-03  0.173E-02  0.177E-02
  -2.189  0.497E-02  0.172E-03  0.667E-03  0.776E-03  0.158E-02  0.177E-02
  -2.179  0.163E-01  0.280E-03  0.362E-02  0.287E-02  0.309E-02  0.642E-02
  -2.169  0.481E-02  0.431E-04  0.630E-03  0.666E-03  0.152E-02  0.196E-02
  -2.159  0.835E-02  0.795E-04  0.130E-02  0.105E-02  0.247E-02  0.345E-02
  -2.149  0.158E-01  0.135E-03  0.266E-02  0.217E-02  0.477E-02  0.611E-02
  -2.139  0.279E-01  0.173E-03  0.434E-02  0.406E-02  0.898E-02  0.104E-01
  -2.129  0.351E-01  0.198E-03  0.522E-02  0.533E-02  0.117E-01  0.127E-01
  -2.119  0.641E-02  0.119E-03  0.127E-02  0.134E-02  0.172E-02  0.196E-02
  -2.109  0.509E-02  0.118E-03  0.101E-02  0.116E-02  0.130E-02  0.151E-02
  -2.099  0.581E-02  0.239E-03  0.115E-02  0.166E-02  0.127E-02  0.149E-02
  -2.089  0.264E-02  0.451E-04  0.456E-03  0.541E-03  0.709E-03  0.886E-03
  -2.079  0.251E-02  0.439E-04  0.409E-03  0.524E-03  0.671E-03  0.863E-03
  -2.069  0.245E-02  0.428E-04  0.372E-03  0.518E-03  0.655E-03  0.866E-03
  -2.059  0.247E-02  0.416E-04  0.345E-03  0.522E-03  0.661E-03  0.895E-03
  -2.049  0.296E-02  0.447E-04  0.385E-03  0.624E-03  0.790E-03  0.111E-02
  -2.039  0.312E-02  0.447E-04  0.404E-03  0.648E-03  0.829E-03  0.119E-02
  -2.029  0.325E-02  0.447E-04  0.420E-03  0.667E-03  0.859E-03  0.126E-02
  -2.019  0.340E-02  0.460E-04  0.445E-03  0.693E-03  0.888E-03  0.132E-02
  -2.009  0.346E-02  0.459E-04  0.460E-03  0.701E-03  0.901E-03  0.135E-02
  -1.999  0.349E-02  0.457E-04  0.472E-03  0.705E-03  0.906E-03  0.137E-02
  -1.989  0.349E-02  0.455E-04  0.480E-03  0.703E-03  0.901E-03  0.136E-02
  -1.979  0.346E-02  0.452E-04  0.485E-03  0.695E-03  0.887E-03  0.134E-02
  -1.969  0.340E-02  0.450E-04  0.488E-03  0.685E-03  0.868E-03  0.131E-02
  -1.959  0.332E-02  0.449E-04  0.488E-03  0.672E-03  0.844E-03  0.127E-02
  -1.949  0.321E-02  0.447E-04  0.485E-03  0.653E-03  0.810E-03  0.121E-02
  -1.939  0.305E-02  0.444E-04  0.478E-03  0.627E-03  0.766E-03  0.114E-02
  -1.929  0.286E-02  0.440E-04  0.467E-03  0.595E-03  0.713E-03  0.104E-02
  -1.919  0.264E-02  0.436E-04  0.454E-03  0.557E-03  0.650E-03  0.933E-03
  -1.909  0.302E-02  0.505E-04  0.863E-03  0.543E-03  0.634E-03  0.924E-03
  -1.899  0.362E-02  0.636E-04  0.114E-02  0.602E-03  0.757E-03  0.105E-02
  -1.889  0.435E-02  0.822E-04  0.121E-02  0.734E-03  0.102E-02  0.131E-02
  -1.879  0.565E-02  0.106E-03  0.111E-02  0.101E-02  0.154E-02  0.188E-02
  -1.869  0.109E-01  0.106E-03  0.149E-02  0.112E-02  0.495E-02  0.327E-02
  -1.859  0.180E-01  0.198E-02  0.225E-02  0.211E-02  0.628E-02  0.536E-02
  -1.849  0.217E-01  0.158E-02  0.326E-02  0.373E-02  0.679E-02  0.637E-02
  -1.839  0.735E-01  0.150E-02  0.126E-01  0.126E-01  0.239E-01  0.229E-01
  -1.829  0.103E-01  0.706E-03  0.137E-02  0.177E-02  0.325E-02  0.323E-02
  -1.819  0.792E-02  0.413E-03  0.115E-02  0.146E-02  0.246E-02  0.244E-02
  -1.809  0.605E-02  0.232E-03  0.946E-03  0.117E-02  0.186E-02  0.184E-02
  -1.799  0.475E-02  0.163E-03  0.759E-03  0.919E-03  0.147E-02  0.144E-02
  -1.789  0.427E-02  0.158E-03  0.690E-03  0.837E-03  0.131E-02  0.128E-02
  -1.779  0.384E-02  0.153E-03  0.628E-03  0.763E-03  0.116E-02  0.113E-02
  -1.769  0.345E-02  0.147E-03  0.573E-03  0.696E-03  0.103E-02  0.995E-03
  -1.759  0.310E-02  0.141E-03  0.525E-03  0.637E-03  0.919E-03  0.875E-03
  -1.749  0.279E-02  0.134E-03  0.484E-03  0.586E-03  0.818E-03  0.769E-03
  -1.739  0.253E-02  0.126E-03  0.450E-03  0.542E-03  0.732E-03  0.677E-03
  -1.729  0.231E-02  0.118E-03  0.424E-03  0.506E-03  0.660E-03  0.599E-03
  -1.719  0.213E-02  0.110E-03  0.405E-03  0.477E-03  0.602E-03  0.535E-03
  -1.709  0.199E-02  0.101E-03  0.393E-03  0.456E-03  0.559E-03  0.486E-03
  -1.699  0.201E-02  0.955E-04  0.410E-03  0.456E-03  0.564E-03  0.481E-03
  -1.689  0.204E-02  0.908E-04  0.433E-03  0.459E-03  0.578E-03  0.484E-03
  -1.679  0.208E-02  0.859E-04  0.457E-03  0.461E-03  0.592E-03  0.487E-03
  -1.669  0.212E-02  0.808E-04  0.482E-03  0.464E-03  0.607E-03  0.491E-03
  -1.659  0.216E-02  0.756E-04  0.508E-03  0.465E-03  0.622E-03  0.494E-03
  -1.649  0.221E-02  0.701E-04  0.535E-03  0.467E-03  0.637E-03  0.498E-03
  -1.639  0.176E-02  0.628E-04  0.407E-03  0.368E-03  0.508E-03  0.410E-03
  -1.629  0.326E-02  0.582E-04  0.541E-03  0.500E-03  0.114E-02  0.102E-02
  -1.619  0.105E-01  0.544E-04  0.143E-02  0.125E-02  0.406E-02  0.373E-02
  -1.609  0.163E-01  0.519E-04  0.228E-02  0.187E-02  0.632E-02  0.582E-02
  -1.599  0.207E-01  0.505E-04  0.307E-02  0.234E-02  0.792E-02  0.729E-02
  -1.589  0.247E-01  0.514E-04  0.399E-02  0.283E-02  0.931E-02  0.854E-02
  -1.579  0.152E-01  0.667E-04  0.466E-02  0.238E-02  0.442E-02  0.367E-02
  -1.569  0.737E-02  0.296E-04  0.190E-02  0.818E-03  0.243E-02  0.219E-02
  -1.559  0.611E-02  0.256E-04  0.975E-03  0.734E-03  0.229E-02  0.209E-02
  -1.549  0.126E-01  0.139E-03  0.222E-02  0.565E-02  0.249E-02  0.215E-02
  -1.539  0.797E-02  0.720E-04  0.150E-02  0.216E-02  0.221E-02  0.204E-02
  -1.529  0.757E-02  0.625E-04  0.136E-02  0.202E-02  0.214E-02  0.198E-02
  -1.519  0.717E-02  0.541E-04  0.123E-02  0.189E-02  0.207E-02  0.192E-02
  -1.509  0.678E-02  0.469E-04  0.112E-02  0.175E-02  0.201E-02  0.186E-02
  -1.499  0.640E-02  0.409E-04  0.101E-02  0.161E-02  0.194E-02  0.181E-02
  -1.489  0.603E-02  0.360E-04  0.918E-03  0.146E-02  0.187E-02  0.175E-02
  -1.479  0.567E-02  0.324E-04  0.837E-03  0.131E-02  0.180E-02  0.168E-02
  -1.469  0.531E-02  0.300E-04  0.768E-03  0.116E-02  0.173E-02  0.162E-02
  -1.459  0.500E-02  0.287E-04  0.726E-03  0.101E-02  0.167E-02  0.156E-02
  -1.449  0.495E-02  0.281E-04  0.767E-03  0.101E-02  0.163E-02  0.152E-02
  -1.439  0.791E-02  0.276E-04  0.110E-02  0.130E-02  0.283E-02  0.266E-02
  -1.429  0.699E-02  0.271E-04  0.106E-02  0.122E-02  0.242E-02  0.226E-02
  -1.419  0.605E-02  0.268E-04  0.102E-02  0.115E-02  0.200E-02  0.185E-02
  -1.409  0.511E-02  0.265E-04  0.978E-03  0.108E-02  0.158E-02  0.144E-02
  -1.399  0.415E-02  0.262E-04  0.936E-03  0.102E-02  0.115E-02  0.102E-02
  -1.389  0.317E-02  0.261E-04  0.893E-03  0.957E-03  0.705E-03  0.593E-03
  -1.379  0.219E-02  0.260E-04  0.848E-03  0.900E-03  0.255E-03  0.160E-03
  -1.369  0.208E-02  0.259E-04  0.882E-03  0.930E-03  0.169E-03  0.756E-04
  -1.359  0.219E-02  0.258E-04  0.934E-03  0.983E-03  0.170E-03  0.765E-04
  -1.349  0.230E-02  0.257E-04  0.984E-03  0.104E-02  0.168E-03  0.763E-04
  -1.339  0.240E-02  0.255E-04  0.103E-02  0.110E-02  0.164E-03  0.750E-04
  -1.329  0.250E-02  0.252E-04  0.108E-02  0.117E-02  0.158E-03  0.726E-04
  -1.319  0.146E-02  0.188E-04  0.623E-03  0.701E-03  0.790E-04  0.379E-04
  -1.309  0.146E-02  0.182E-04  0.633E-03  0.692E-03  0.785E-04  0.385E-04
  -1.299  0.146E-02  0.176E-04  0.643E-03  0.684E-03  0.779E-04  0.389E-04
  -1.289  0.146E-02  0.172E-04  0.654E-03  0.675E-03  0.773E-04  0.393E-04
  -1.279  0.147E-02  0.168E-04  0.666E-03  0.667E-03  0.766E-04  0.395E-04
  -1.269  0.147E-02  0.166E-04  0.678E-03  0.658E-03  0.758E-04  0.398E-04
  -1.259  0.147E-02  0.164E-04  0.691E-03  0.649E-03  0.749E-04  0.399E-04
  -1.249  0.147E-02  0.163E-04  0.693E-03  0.651E-03  0.749E-04  0.395E-04
  -1.239  0.146E-02  0.161E-04  0.679E-03  0.652E-03  0.747E-04  0.384E-04
  -1.229  0.144E-02  0.157E-04  0.662E-03  0.646E-03  0.739E-04  0.371E-04
  -1.219  0.140E-02  0.152E-04  0.643E-03  0.637E-03  0.728E-04  0.357E-04
  -1.209  0.137E-02  0.147E-04  0.625E-03  0.628E-03  0.717E-04  0.343E-04
  -1.199  0.134E-02  0.143E-04  0.606E-03  0.618E-03  0.705E-04  0.330E-04
  -1.189  0.131E-02  0.138E-04  0.588E-03  0.607E-03  0.693E-04  0.317E-04
  -1.179  0.128E-02  0.133E-04  0.570E-03  0.595E-03  0.681E-04  0.305E-04
  -1.169  0.124E-02  0.128E-04  0.552E-03  0.583E-03  0.668E-04  0.293E-04
  -1.159  0.121E-02  0.123E-04  0.534E-03  0.570E-03  0.654E-04  0.282E-04
  -1.149  0.118E-02  0.119E-04  0.517E-03  0.557E-03  0.640E-04  0.271E-04
  -1.139  0.114E-02  0.114E-04  0.499E-03  0.542E-03  0.625E-04  0.260E-04
  -1.129  0.111E-02  0.109E-04  0.482E-03  0.528E-03  0.610E-04  0.250E-04
  -1.119  0.107E-02  0.104E-04  0.466E-03  0.512E-03  0.595E-04  0.240E-04
  -1.109  0.104E-02  0.994E-05  0.449E-03  0.496E-03  0.579E-04  0.231E-04
  -1.099  0.101E-02  0.954E-05  0.439E-03  0.485E-03  0.569E-04  0.225E-04
  -1.089  0.100E-02  0.923E-05  0.436E-03  0.480E-03  0.567E-04  0.223E-04
  -1.079  0.997E-03  0.894E-05  0.435E-03  0.474E-03  0.564E-04  0.222E-04
  -1.069  0.989E-03  0.867E-05  0.435E-03  0.467E-03  0.559E-04  0.221E-04
  -1.059  0.981E-03  0.841E-05  0.435E-03  0.459E-03  0.552E-04  0.221E-04
  -1.049  0.972E-03  0.817E-05  0.437E-03  0.450E-03  0.545E-04  0.221E-04
  -1.039  0.964E-03  0.794E-05  0.440E-03  0.440E-03  0.536E-04  0.221E-04
  -1.029  0.956E-03  0.773E-05  0.444E-03  0.430E-03  0.526E-04  0.223E-04
  -1.019  0.948E-03  0.753E-05  0.449E-03  0.418E-03  0.514E-04  0.224E-04
  -1.009  0.940E-03  0.735E-05  0.455E-03  0.405E-03  0.502E-04  0.226E-04
  -0.999  0.932E-03  0.719E-05  0.462E-03  0.391E-03  0.487E-04  0.229E-04
  -0.989  0.923E-03  0.704E-05  0.470E-03  0.376E-03  0.472E-04  0.232E-04
  -0.979  0.915E-03  0.691E-05  0.479E-03  0.360E-03  0.455E-04  0.236E-04
  -0.969  0.907E-03  0.679E-05  0.489E-03  0.343E-03  0.437E-04  0.240E-04
  -0.959  0.899E-03  0.669E-05  0.500E-03  0.325E-03  0.418E-04  0.245E-04
  -0.949  0.726E-03  0.536E-05  0.329E-03  0.332E-03  0.426E-04  0.162E-04
  -0.939  0.664E-03  0.502E-05  0.301E-03  0.304E-03  0.389E-04  0.148E-04
  -0.929  0.605E-03  0.469E-05  0.274E-03  0.277E-03  0.354E-04  0.135E-04
  -0.919  0.548E-03  0.437E-05  0.249E-03  0.251E-03  0.321E-04  0.122E-04
  -0.909  0.495E-03  0.406E-05  0.224E-03  0.226E-03  0.290E-04  0.110E-04
  -0.899  0.444E-03  0.376E-05  0.201E-03  0.203E-03  0.260E-04  0.989E-05
  -0.889  0.396E-03  0.347E-05  0.179E-03  0.181E-03  0.232E-04  0.881E-05
  -0.879  0.351E-03  0.319E-05  0.159E-03  0.160E-03  0.205E-04  0.780E-05
  -0.869  0.308E-03  0.291E-05  0.140E-03  0.141E-03  0.180E-04  0.685E-05
  -0.859  0.268E-03  0.265E-05  0.121E-03  0.122E-03  0.157E-04  0.596E-05
  -0.849  0.231E-03  0.240E-05  0.105E-03  0.105E-03  0.135E-04  0.513E-05
  -0.839  0.197E-03  0.216E-05  0.891E-04  0.897E-04  0.115E-04  0.436E-05
  -0.829  0.165E-03  0.192E-05  0.748E-04  0.753E-04  0.962E-05  0.366E-05
  -0.819  0.136E-03  0.170E-05  0.617E-04  0.621E-04  0.794E-05  0.302E-05
  -0.809  0.110E-03  0.148E-05  0.499E-04  0.502E-04  0.641E-05  0.244E-05
  -0.799  0.872E-04  0.128E-05  0.393E-04  0.396E-04  0.505E-05  0.192E-05
  -0.789  0.666E-04  0.108E-05  0.300E-04  0.302E-04  0.385E-05  0.146E-05
  -0.779  0.488E-04  0.897E-06  0.220E-04  0.221E-04  0.281E-05  0.107E-05
  -0.769  0.338E-04  0.721E-06  0.152E-04  0.152E-04  0.194E-05  0.736E-06
  -0.759  0.215E-04  0.554E-06  0.965E-05  0.966E-05  0.122E-05  0.465E-06
  -0.749  0.120E-04  0.397E-06  0.536E-05  0.534E-05  0.675E-06  0.256E-06
  -0.739  0.526E-05  0.250E-06  0.232E-05  0.230E-05  0.288E-06  0.109E-06
  -0.729  0.125E-05  0.112E-06  0.534E-06  0.518E-06  0.633E-07  0.238E-07
  -0.719  0.000E+00  0.000E+00  0.000E+00  0.000E+00  0.000E+00  0.000E+00
  -0.709  0.000E+00  0.000E+00  0.000E+00  0.000E+00  0.000E+00  0.000E+00
  -0.699  0.000E+00  0.000E+00  0.000E+00  0.000E+00  0.000E+00  0.000E+00
  -0.689  0.000E+00  0.000E+00  0.000E+00  0.000E+00  0.000E+00  0.000E+00
  -0.679  0.000E+00  0.000E+00  0.000E+00  0.000E+00  0.000E+00  0.000E+00
  -0.669  0.000E+00  0.000E+00  0.000E+00  0.000E+00  0.000E+00  0.000E+00
  -0.659  0.000E+00  0.000E+00  0.000E+00  0.000E+00  0.000E+00  0.000E+00
  -0.649  0.000E+00  0.000E+00  0.000E+00  0.000E+00  0.000E+00  0.000E+00
  -0.639  0.000E+00  0.000E+00  0.000E+00  0.000E+00  0.000E+00  0.000E+00
  -0.629  0.000E+00  0.000E+00  0.000E+00  0.000E+00  0.000E+00  0.000E+00
  -0.619  0.166E-04  0.207E-06  0.206E-09  0.137E-04  0.275E-05  0.322E-09
  -0.609  0.990E-04  0.121E-05  0.760E-08  0.813E-04  0.164E-04  0.119E-07
  -0.599  0.178E-03  0.213E-05  0.256E-07  0.146E-03  0.296E-04  0.401E-07
  -0.589  0.282E-03  0.298E-05  0.282E-04  0.207E-03  0.423E-04  0.130E-05
  -0.579  0.427E-03  0.374E-05  0.991E-04  0.266E-03  0.545E-04  0.441E-05
  -0.569  0.580E-03  0.187E-04  0.167E-03  0.321E-03  0.663E-04  0.742E-05
  -0.559  0.730E-03  0.363E-04  0.232E-03  0.374E-03  0.776E-04  0.103E-04
  -0.549  0.873E-03  0.533E-04  0.294E-03  0.423E-03  0.884E-04  0.132E-04
  -0.539  0.101E-02  0.697E-04  0.353E-03  0.470E-03  0.989E-04  0.160E-04
  -0.529  0.114E-02  0.854E-04  0.410E-03  0.514E-03  0.109E-03  0.187E-04
  -0.519  0.126E-02  0.100E-03  0.463E-03  0.556E-03  0.118E-03  0.213E-04
  -0.509  0.137E-02  0.115E-03  0.514E-03  0.594E-03  0.127E-03  0.239E-04
  -0.499  0.148E-02  0.129E-03  0.562E-03  0.630E-03  0.136E-03  0.263E-04
  -0.489  0.158E-02  0.142E-03  0.607E-03  0.662E-03  0.144E-03  0.287E-04
  -0.479  0.168E-02  0.154E-03  0.649E-03  0.692E-03  0.152E-03  0.311E-04
  -0.469  0.177E-02  0.166E-03  0.688E-03  0.719E-03  0.159E-03  0.333E-04
  -0.459  0.185E-02  0.177E-03  0.724E-03  0.743E-03  0.166E-03  0.355E-04
  -0.449  0.192E-02  0.187E-03  0.757E-03  0.764E-03  0.173E-03  0.376E-04
  -0.439  0.199E-02  0.197E-03  0.788E-03  0.783E-03  0.179E-03  0.396E-04
  -0.429  0.205E-02  0.206E-03  0.815E-03  0.798E-03  0.184E-03  0.416E-04
  -0.419  0.384E-02  0.225E-03  0.974E-03  0.209E-02  0.496E-03  0.524E-04
  -0.409  0.380E-02  0.233E-03  0.112E-02  0.193E-02  0.462E-03  0.576E-04
  -0.399  0.401E-02  0.242E-03  0.146E-02  0.180E-02  0.437E-03  0.731E-04
  -0.389  0.400E-02  0.251E-03  0.157E-02  0.168E-02  0.415E-03  0.802E-04
  -0.379  0.398E-02  0.260E-03  0.165E-02  0.158E-02  0.399E-03  0.874E-04
  -0.369  0.395E-02  0.269E-03  0.170E-02  0.150E-02  0.387E-03  0.945E-04
  -0.359  0.443E-02  0.280E-03  0.197E-02  0.164E-02  0.435E-03  0.109E-03
  -0.349  0.720E-02  0.298E-03  0.359E-02  0.246E-02  0.691E-03  0.159E-03
  -0.339  0.107E-01  0.326E-03  0.577E-02  0.338E-02  0.103E-02  0.225E-03
  -0.329  0.140E-01  0.366E-03  0.770E-02  0.420E-02  0.139E-02  0.294E-03
  -0.319  0.777E-02  0.351E-03  0.369E-02  0.266E-02  0.864E-03  0.205E-03
  -0.309  0.721E-02  0.365E-03  0.308E-02  0.270E-02  0.866E-03  0.201E-03
  -0.299  0.674E-02  0.379E-03  0.245E-02  0.283E-02  0.882E-03  0.196E-03
  -0.289  0.430E-02  0.336E-03  0.174E-02  0.168E-02  0.426E-03  0.118E-03
  -0.279  0.219E-02  0.298E-03  0.123E-02  0.500E-03  0.741E-04  0.877E-04
  -0.269  0.224E-02  0.300E-03  0.123E-02  0.543E-03  0.796E-04  0.901E-04
  -0.259  0.808E-02  0.393E-03  0.487E-02  0.226E-02  0.254E-03  0.294E-03
  -0.249  0.871E-02  0.411E-03  0.515E-02  0.265E-02  0.218E-03  0.289E-03
  -0.239  0.994E-02  0.439E-03  0.570E-02  0.334E-02  0.181E-03  0.285E-03
  -0.229  0.210E-01  0.670E-03  0.113E-01  0.827E-02  0.252E-03  0.471E-03
  -0.219  0.402E-03  0.265E-03  0.328E-04  0.481E-04  0.267E-04  0.295E-04
  -0.209  0.407E-03  0.262E-03  0.346E-04  0.508E-04  0.282E-04  0.312E-04
  -0.199  0.411E-03  0.258E-03  0.365E-04  0.536E-04  0.298E-04  0.329E-04
  -0.189  0.415E-03  0.254E-03  0.385E-04  0.565E-04  0.314E-04  0.347E-04
  -0.179  0.418E-03  0.249E-03  0.405E-04  0.594E-04  0.330E-04  0.365E-04
  -0.169  0.421E-03  0.243E-03  0.426E-04  0.624E-04  0.347E-04  0.383E-04
  -0.159  0.424E-03  0.237E-03  0.447E-04  0.655E-04  0.364E-04  0.402E-04
  -0.149  0.426E-03  0.230E-03  0.468E-04  0.687E-04  0.382E-04  0.422E-04
  -0.139  0.428E-03  0.223E-03  0.490E-04  0.719E-04  0.400E-04  0.442E-04
  -0.129  0.430E-03  0.215E-03  0.513E-04  0.752E-04  0.418E-04  0.462E-04
  -0.119  0.431E-03  0.207E-03  0.536E-04  0.786E-04  0.437E-04  0.483E-04
  -0.109  0.155E-02  0.484E-03  0.126E-03  0.333E-03  0.620E-04  0.544E-03
  -0.099  0.341E-02  0.116E-02  0.250E-03  0.688E-03  0.136E-03  0.117E-02
  -0.089  0.779E-02  0.221E-02  0.200E-02  0.141E-02  0.409E-03  0.176E-02
  -0.079  0.173E-01  0.365E-02  0.551E-02  0.475E-02  0.102E-02  0.238E-02
  -0.069  0.430E-01  0.893E-02  0.107E-01  0.159E-01  0.296E-02  0.449E-02
  -0.059  0.922E-01  0.104E-01  0.280E-01  0.407E-01  0.525E-02  0.797E-02
  -0.049  0.297E-01  0.617E-02  0.411E-02  0.134E-01  0.268E-02  0.336E-02
  -0.039  0.274E-01  0.532E-02  0.378E-02  0.132E-01  0.257E-02  0.252E-02
  -0.029  0.270E-01  0.456E-02  0.475E-02  0.140E-01  0.145E-02  0.227E-02
  -0.019  0.321E-01  0.404E-02  0.634E-02  0.177E-01  0.176E-02  0.225E-02
  -0.009  0.280E-01  0.313E-02  0.503E-02  0.162E-01  0.182E-02  0.181E-02
   0.001  0.247E-01  0.208E-02  0.395E-02  0.156E-01  0.178E-02  0.129E-02
   0.011  0.218E-01  0.125E-02  0.338E-02  0.145E-01  0.170E-02  0.944E-03
   0.021  0.182E-01  0.805E-03  0.302E-02  0.122E-01  0.144E-02  0.708E-03
   0.031  0.121E-01  0.623E-03  0.307E-02  0.694E-02  0.958E-03  0.553E-03
   0.041  0.818E-02  0.557E-03  0.367E-02  0.274E-02  0.731E-03  0.481E-03
   0.051  0.881E-02  0.511E-03  0.449E-02  0.266E-02  0.748E-03  0.406E-03
   0.061  0.127E-01  0.535E-03  0.736E-02  0.340E-02  0.980E-03  0.395E-03
   0.071  0.882E-02  0.313E-03  0.424E-02  0.286E-02  0.115E-02  0.268E-03
   0.081  0.152E-02  0.211E-03  0.598E-03  0.275E-03  0.348E-03  0.907E-04
   0.091  0.652E-03  0.224E-03  0.188E-04  0.146E-03  0.208E-03  0.557E-04
   0.101  0.681E-03  0.241E-03  0.197E-04  0.146E-03  0.213E-03  0.612E-04
   0.111  0.710E-03  0.258E-03  0.205E-04  0.147E-03  0.218E-03  0.670E-04
   0.121  0.740E-03  0.275E-03  0.214E-04  0.147E-03  0.224E-03  0.730E-04
   0.131  0.771E-03  0.292E-03  0.222E-04  0.148E-03  0.229E-03  0.793E-04
   0.141  0.802E-03  0.309E-03  0.231E-04  0.149E-03  0.236E-03  0.857E-04
   0.151  0.834E-03  0.326E-03  0.240E-04  0.149E-03  0.242E-03  0.924E-04
   0.161  0.866E-03  0.343E-03  0.249E-04  0.150E-03  0.248E-03  0.992E-04
   0.171  0.898E-03  0.361E-03  0.257E-04  0.151E-03  0.255E-03  0.106E-03
   0.181  0.932E-03  0.378E-03  0.266E-04  0.151E-03  0.262E-03  0.114E-03
   0.191  0.965E-03  0.395E-03  0.275E-04  0.152E-03  0.270E-03  0.121E-03
   0.201  0.100E-02  0.412E-03  0.284E-04  0.153E-03  0.277E-03  0.129E-03
   0.211  0.103E-02  0.430E-03  0.293E-04  0.154E-03  0.285E-03  0.137E-03
   0.221  0.107E-02  0.447E-03  0.302E-04  0.155E-03  0.293E-03  0.145E-03
   0.231  0.111E-02  0.464E-03  0.311E-04  0.156E-03  0.301E-03  0.153E-03
   0.241  0.114E-02  0.482E-03  0.321E-04  0.156E-03  0.310E-03  0.162E-03
   0.251  0.118E-02  0.499E-03  0.330E-04  0.157E-03  0.319E-03  0.171E-03
   0.261  0.122E-02  0.517E-03  0.339E-04  0.158E-03  0.328E-03  0.180E-03
   0.271  0.125E-02  0.534E-03  0.348E-04  0.159E-03  0.337E-03  0.189E-03
   0.281  0.129E-02  0.552E-03  0.358E-04  0.160E-03  0.346E-03  0.199E-03
   0.291  0.133E-02  0.570E-03  0.367E-04  0.161E-03  0.356E-03  0.208E-03
   0.301  0.137E-02  0.587E-03  0.377E-04  0.162E-03  0.366E-03  0.218E-03
   0.311  0.141E-02  0.605E-03  0.386E-04  0.163E-03  0.376E-03  0.228E-03
   0.321  0.145E-02  0.623E-03  0.396E-04  0.165E-03  0.387E-03  0.239E-03
   0.331  0.149E-02  0.641E-03  0.405E-04  0.166E-03  0.398E-03  0.249E-03
   0.341  0.154E-02  0.659E-03  0.415E-04  0.167E-03  0.409E-03  0.260E-03
   0.351  0.158E-02  0.677E-03  0.425E-04  0.168E-03  0.420E-03  0.271E-03
   0.361  0.162E-02  0.694E-03  0.434E-04  0.169E-03  0.431E-03  0.282E-03
   0.371  0.166E-02  0.712E-03  0.444E-04  0.170E-03  0.443E-03  0.294E-03
   0.381  0.320E-02  0.107E-02  0.290E-03  0.182E-03  0.955E-03  0.702E-03
   0.391  0.987E-02  0.250E-02  0.116E-02  0.390E-03  0.344E-02  0.238E-02
   0.401  0.164E-01  0.373E-02  0.166E-02  0.861E-03  0.629E-02  0.386E-02
   0.411  0.626E-02  0.167E-02  0.524E-03  0.412E-03  0.226E-02  0.140E-02
   0.421  0.671E-02  0.178E-02  0.594E-03  0.459E-03  0.236E-02  0.151E-02
   0.431  0.715E-02  0.191E-02  0.665E-03  0.504E-03  0.245E-02  0.162E-02
   0.441  0.847E-02  0.205E-02  0.741E-03  0.765E-03  0.318E-02  0.174E-02
   0.451  0.976E-02  0.221E-02  0.827E-03  0.103E-02  0.384E-02  0.186E-02
   0.461  0.118E-01  0.238E-02  0.131E-02  0.165E-02  0.444E-02  0.200E-02
   0.471  0.182E-01  0.499E-02  0.234E-02  0.284E-02  0.544E-02  0.262E-02
   0.481  0.247E-01  0.705E-02  0.364E-02  0.432E-02  0.645E-02  0.328E-02
   0.491  0.304E-01  0.794E-02  0.519E-02  0.605E-02  0.735E-02  0.386E-02
   0.501  0.352E-01  0.765E-02  0.698E-02  0.804E-02  0.813E-02  0.438E-02
   0.511  0.391E-01  0.618E-02  0.902E-02  0.103E-01  0.881E-02  0.483E-02
   0.521  0.340E-01  0.572E-02  0.518E-02  0.656E-02  0.105E-01  0.606E-02
   0.531  0.369E-01  0.594E-02  0.483E-02  0.619E-02  0.122E-01  0.772E-02
   0.541  0.412E-01  0.666E-02  0.439E-02  0.579E-02  0.147E-01  0.969E-02
   0.551  0.392E-01  0.660E-02  0.372E-02  0.457E-02  0.145E-01  0.984E-02
   0.561  0.286E-01  0.519E-02  0.296E-02  0.326E-02  0.105E-01  0.674E-02
   0.571  0.186E-01  0.389E-02  0.242E-02  0.281E-02  0.633E-02  0.318E-02
   0.581  0.192E-01  0.407E-02  0.256E-02  0.283E-02  0.640E-02  0.332E-02
   0.591  0.198E-01  0.422E-02  0.271E-02  0.283E-02  0.653E-02  0.351E-02
   0.601  0.213E-01  0.485E-02  0.290E-02  0.288E-02  0.682E-02  0.390E-02
   0.611  0.228E-01  0.529E-02  0.309E-02  0.301E-02  0.713E-02  0.431E-02
   0.621  0.229E-01  0.544E-02  0.311E-02  0.312E-02  0.672E-02  0.448E-02
   0.631  0.207E-01  0.529E-02  0.261E-02  0.275E-02  0.570E-02  0.436E-02
   0.641  0.211E-01  0.508E-02  0.273E-02  0.288E-02  0.584E-02  0.456E-02
   0.651  0.219E-01  0.497E-02  0.286E-02  0.303E-02  0.617E-02  0.483E-02
   0.661  0.218E-01  0.481E-02  0.273E-02  0.298E-02  0.633E-02  0.499E-02
   0.671  0.218E-01  0.467E-02  0.260E-02  0.291E-02  0.647E-02  0.518E-02
   0.681  0.219E-01  0.456E-02  0.248E-02  0.284E-02  0.661E-02  0.542E-02
   0.691  0.220E-01  0.447E-02  0.236E-02  0.274E-02  0.673E-02  0.569E-02
   0.701  0.223E-01  0.443E-02  0.226E-02  0.264E-02  0.687E-02  0.612E-02
   0.711  0.231E-01  0.444E-02  0.217E-02  0.252E-02  0.708E-02  0.686E-02
   0.721  0.238E-01  0.447E-02  0.209E-02  0.238E-02  0.728E-02  0.762E-02
   0.731  0.246E-01  0.454E-02  0.202E-02  0.224E-02  0.746E-02  0.838E-02
   0.741  0.254E-01  0.464E-02  0.195E-02  0.208E-02  0.763E-02  0.914E-02
   0.751  0.343E-01  0.625E-02  0.222E-02  0.250E-02  0.109E-01  0.123E-01
   0.761  0.306E-01  0.571E-02  0.236E-02  0.229E-02  0.904E-02  0.112E-01
   0.771  0.279E-01  0.531E-02  0.246E-02  0.218E-02  0.756E-02  0.104E-01
   0.781  0.261E-01  0.504E-02  0.254E-02  0.217E-02  0.650E-02  0.985E-02
   0.791  0.250E-01  0.486E-02  0.257E-02  0.223E-02  0.585E-02  0.950E-02
   0.801  0.234E-01  0.452E-02  0.240E-02  0.222E-02  0.539E-02  0.890E-02
   0.811  0.228E-01  0.442E-02  0.217E-02  0.224E-02  0.534E-02  0.863E-02
   0.821  0.230E-01  0.459E-02  0.217E-02  0.227E-02  0.543E-02  0.848E-02
   0.831  0.311E-01  0.595E-02  0.309E-02  0.441E-02  0.798E-02  0.966E-02
   0.841  0.292E-01  0.583E-02  0.287E-02  0.452E-02  0.721E-02  0.875E-02
   0.851  0.271E-01  0.586E-02  0.261E-02  0.418E-02  0.651E-02  0.797E-02
   0.861  0.249E-01  0.602E-02  0.232E-02  0.338E-02  0.587E-02  0.732E-02
   0.871  0.327E-01  0.945E-02  0.217E-02  0.273E-02  0.773E-02  0.106E-01
   0.881  0.361E-01  0.115E-01  0.256E-02  0.251E-02  0.833E-02  0.112E-01
   0.891  0.356E-01  0.110E-01  0.339E-02  0.310E-02  0.808E-02  0.100E-01
   0.901  0.270E-01  0.869E-02  0.267E-02  0.260E-02  0.611E-02  0.692E-02
   0.911  0.294E-01  0.101E-01  0.339E-02  0.298E-02  0.650E-02  0.640E-02
   0.921  0.313E-01  0.109E-01  0.393E-02  0.311E-02  0.697E-02  0.634E-02
   0.931  0.336E-01  0.116E-01  0.381E-02  0.330E-02  0.777E-02  0.715E-02
   0.941  0.348E-01  0.122E-01  0.317E-02  0.339E-02  0.824E-02  0.782E-02
   0.951  0.357E-01  0.128E-01  0.259E-02  0.338E-02  0.853E-02  0.830E-02
   0.961  0.361E-01  0.135E-01  0.207E-02  0.327E-02  0.866E-02  0.861E-02
   0.971  0.256E-01  0.734E-02  0.151E-02  0.271E-02  0.677E-02  0.730E-02
   0.981  0.247E-01  0.644E-02  0.131E-02  0.255E-02  0.674E-02  0.762E-02
   0.991  0.189E-01  0.499E-02  0.102E-02  0.154E-02  0.501E-02  0.635E-02
   1.001  0.210E-01  0.503E-02  0.126E-02  0.169E-02  0.555E-02  0.742E-02
   1.011  0.234E-01  0.519E-02  0.159E-02  0.179E-02  0.611E-02  0.869E-02
   1.021  0.262E-01  0.547E-02  0.203E-02  0.185E-02  0.667E-02  0.101E-01
   1.031  0.949E-01  0.109E-01  0.722E-02  0.346E-02  0.234E-01  0.499E-01
   1.041  0.108E-01  0.372E-02  0.985E-03  0.816E-03  0.232E-02  0.295E-02
   1.051  0.507E-01  0.772E-02  0.528E-02  0.293E-02  0.156E-01  0.191E-01
   1.061  0.427E-01  0.692E-02  0.448E-02  0.224E-02  0.128E-01  0.163E-01
   1.071  0.355E-01  0.614E-02  0.376E-02  0.171E-02  0.103E-01  0.136E-01
   1.081  0.292E-01  0.537E-02  0.313E-02  0.132E-02  0.821E-02  0.112E-01
   1.091  0.240E-01  0.468E-02  0.259E-02  0.108E-02  0.663E-02  0.908E-02
   1.101  0.199E-01  0.410E-02  0.205E-02  0.918E-03  0.566E-02  0.716E-02
   1.111  0.885E-01  0.121E-01  0.152E-01  0.960E-03  0.572E-02  0.546E-01
   1.121  0.284E-01  0.502E-02  0.256E-02  0.736E-03  0.473E-02  0.153E-01
   1.131  0.268E-01  0.479E-02  0.248E-02  0.663E-03  0.438E-02  0.145E-01
   1.141  0.301E-01  0.488E-02  0.245E-02  0.140E-02  0.770E-02  0.137E-01
   1.151  0.338E-01  0.500E-02  0.252E-02  0.201E-02  0.111E-01  0.132E-01
   1.161  0.371E-01  0.512E-02  0.267E-02  0.236E-02  0.140E-01  0.129E-01
   1.171  0.410E-01  0.541E-02  0.303E-02  0.254E-02  0.167E-01  0.133E-01
   1.181  0.433E-01  0.561E-02  0.355E-02  0.237E-02  0.181E-01  0.136E-01
   1.191  0.412E-01  0.531E-02  0.402E-02  0.211E-02  0.169E-01  0.128E-01
   1.201  0.401E-01  0.521E-02  0.464E-02  0.187E-02  0.157E-01  0.126E-01
   1.211  0.422E-01  0.780E-02  0.530E-02  0.185E-02  0.152E-01  0.121E-01
   1.221  0.440E-01  0.103E-01  0.602E-02  0.178E-02  0.146E-01  0.113E-01
   1.231  0.449E-01  0.126E-01  0.635E-02  0.168E-02  0.139E-01  0.103E-01
   1.241  0.394E-01  0.956E-02  0.653E-02  0.144E-02  0.126E-01  0.928E-02
   1.251  0.386E-01  0.972E-02  0.699E-02  0.142E-02  0.122E-01  0.826E-02
   1.261  0.393E-01  0.102E-01  0.759E-02  0.156E-02  0.122E-01  0.769E-02
   1.271  0.403E-01  0.111E-01  0.713E-02  0.184E-02  0.126E-01  0.755E-02
   1.281  0.415E-01  0.124E-01  0.513E-02  0.228E-02  0.133E-01  0.841E-02
   1.291  0.297E-01  0.107E-01  0.298E-02  0.152E-02  0.873E-02  0.573E-02
   1.301  0.319E-01  0.131E-01  0.284E-02  0.169E-02  0.791E-02  0.636E-02
   1.311  0.336E-01  0.161E-01  0.261E-02  0.162E-02  0.676E-02  0.658E-02
   1.321  0.355E-01  0.186E-01  0.242E-02  0.168E-02  0.597E-02  0.683E-02
   1.331  0.258E-01  0.130E-01  0.164E-02  0.116E-02  0.431E-02  0.574E-02
   1.341  0.248E-01  0.123E-01  0.136E-02  0.110E-02  0.415E-02  0.594E-02
   1.351  0.340E-01  0.129E-01  0.497E-02  0.115E-02  0.531E-02  0.963E-02
   1.361  0.460E-01  0.143E-01  0.431E-02  0.286E-02  0.121E-01  0.124E-01
   1.371  0.406E-01  0.130E-01  0.335E-02  0.252E-02  0.107E-01  0.111E-01
   1.381  0.351E-01  0.115E-01  0.253E-02  0.219E-02  0.922E-02  0.966E-02
   1.391  0.317E-01  0.102E-01  0.217E-02  0.191E-02  0.824E-02  0.922E-02
   1.401  0.289E-01  0.884E-02  0.195E-02  0.167E-02  0.748E-02  0.897E-02
   1.411  0.262E-01  0.737E-02  0.176E-02  0.146E-02  0.685E-02  0.872E-02
   1.421  0.243E-01  0.601E-02  0.163E-02  0.130E-02  0.653E-02  0.881E-02
   1.431  0.327E-01  0.741E-02  0.195E-02  0.165E-02  0.963E-02  0.121E-01
   1.441  0.280E-01  0.609E-02  0.210E-02  0.132E-02  0.854E-02  0.995E-02
   1.451  0.234E-01  0.482E-02  0.206E-02  0.995E-03  0.717E-02  0.834E-02
   1.461  0.189E-01  0.360E-02  0.182E-02  0.682E-03  0.551E-02  0.725E-02
   1.471  0.152E-01  0.274E-02  0.139E-02  0.471E-03  0.381E-02  0.681E-02
   1.481  0.150E-01  0.270E-02  0.124E-02  0.433E-03  0.344E-02  0.719E-02
   1.491  0.157E-01  0.286E-02  0.123E-02  0.440E-03  0.356E-02  0.763E-02
   1.501  0.273E-01  0.661E-02  0.222E-02  0.127E-02  0.830E-02  0.886E-02
   1.511  0.476E-01  0.791E-02  0.329E-02  0.189E-02  0.231E-01  0.114E-01
   1.521  0.577E-01  0.985E-02  0.409E-02  0.213E-02  0.254E-01  0.162E-01
   1.531  0.576E-01  0.124E-01  0.459E-02  0.198E-02  0.153E-01  0.234E-01
   1.541  0.280E-01  0.608E-02  0.195E-02  0.122E-02  0.730E-02  0.115E-01
   1.551  0.289E-01  0.605E-02  0.192E-02  0.128E-02  0.759E-02  0.120E-01
   1.561  0.337E-01  0.698E-02  0.264E-02  0.212E-02  0.873E-02  0.133E-01
   1.571  0.343E-01  0.704E-02  0.252E-02  0.188E-02  0.935E-02  0.135E-01
   1.581  0.351E-01  0.714E-02  0.206E-02  0.186E-02  0.101E-01  0.140E-01
   1.591  0.380E-01  0.757E-02  0.202E-02  0.204E-02  0.114E-01  0.150E-01
   1.601  0.417E-01  0.815E-02  0.208E-02  0.226E-02  0.130E-01  0.162E-01
   1.611  0.455E-01  0.885E-02  0.215E-02  0.248E-02  0.148E-01  0.172E-01
   1.621  0.370E-01  0.765E-02  0.158E-02  0.196E-02  0.126E-01  0.132E-01
   1.631  0.383E-01  0.831E-02  0.155E-02  0.198E-02  0.135E-01  0.130E-01
   1.641  0.398E-01  0.908E-02  0.153E-02  0.199E-02  0.143E-01  0.129E-01
   1.651  0.414E-01  0.995E-02  0.153E-02  0.198E-02  0.152E-01  0.127E-01
   1.661  0.433E-01  0.110E-01  0.155E-02  0.196E-02  0.162E-01  0.126E-01
   1.671  0.437E-01  0.119E-01  0.155E-02  0.186E-02  0.164E-01  0.120E-01
   1.681  0.434E-01  0.126E-01  0.155E-02  0.173E-02  0.162E-01  0.114E-01
   1.691  0.429E-01  0.132E-01  0.154E-02  0.159E-02  0.159E-01  0.107E-01
   1.701  0.415E-01  0.135E-01  0.147E-02  0.145E-02  0.153E-01  0.986E-02
   1.711  0.399E-01  0.137E-01  0.139E-02  0.131E-02  0.146E-01  0.894E-02
   1.721  0.383E-01  0.139E-01  0.132E-02  0.117E-02  0.139E-01  0.805E-02
   1.731  0.245E-01  0.912E-02  0.864E-03  0.788E-03  0.878E-02  0.490E-02
   1.741  0.213E-01  0.828E-02  0.747E-03  0.672E-03  0.750E-02  0.412E-02
   1.751  0.184E-01  0.746E-02  0.641E-03  0.565E-03  0.634E-02  0.344E-02
   1.761  0.158E-01  0.665E-02  0.547E-03  0.465E-03  0.529E-02  0.286E-02
   1.771  0.134E-01  0.586E-02  0.465E-03  0.373E-03  0.435E-02  0.237E-02
   1.781  0.195E-01  0.112E-01  0.635E-03  0.521E-03  0.454E-02  0.261E-02
   1.791  0.153E-01  0.849E-02  0.570E-03  0.408E-03  0.361E-02  0.226E-02
   1.801  0.117E-01  0.624E-02  0.498E-03  0.312E-03  0.277E-02  0.189E-02
   1.811  0.859E-02  0.442E-02  0.418E-03  0.234E-03  0.202E-02  0.150E-02
   1.821  0.601E-02  0.304E-02  0.330E-03  0.173E-03  0.137E-02  0.110E-02
   1.831  0.394E-02  0.209E-02  0.233E-03  0.130E-03  0.807E-03  0.684E-03
   1.841  0.291E-02  0.157E-02  0.199E-03  0.105E-03  0.513E-03  0.516E-03
   1.851  0.209E-02  0.111E-02  0.172E-03  0.839E-04  0.320E-03  0.403E-03
   1.861  0.149E-02  0.733E-03  0.147E-03  0.680E-04  0.212E-03  0.326E-03
   1.871  0.114E-02  0.555E-03  0.122E-03  0.573E-04  0.142E-03  0.262E-03
   1.881  0.819E-03  0.395E-03  0.958E-04  0.454E-04  0.855E-04  0.198E-03
   1.891  0.530E-03  0.252E-03  0.676E-04  0.324E-04  0.432E-04  0.135E-03
   1.901  0.270E-03  0.126E-03  0.377E-04  0.183E-04  0.151E-04  0.727E-04
   1.911  0.400E-04  0.184E-04  0.612E-05  0.300E-05  0.106E-05  0.114E-04
   1.921  0.000E+00  0.000E+00  0.000E+00  0.000E+00  0.000E+00  0.000E+00
