# E (eV)   ldos(E)   pdos(E)    pdos(E)    pdos(E)   
 -15.919  0.000E+00  0.000E+00  0.000E+00  0.000E+00
 -15.909  0.166E-02  0.164E-02  0.908E-05  0.110E-04
 -15.899  0.333E-02  0.326E-02  0.363E-04  0.408E-04
 -15.889  0.245E-02  0.237E-02  0.397E-04  0.434E-04
 -15.879  0.259E-02  0.248E-02  0.530E-04  0.573E-04
 -15.869  0.273E-02  0.259E-02  0.672E-04  0.723E-04
 -15.859  0.287E-02  0.270E-02  0.824E-04  0.883E-04
 -15.849  0.301E-02  0.280E-02  0.986E-04  0.105E-03
 -15.839  0.315E-02  0.291E-02  0.116E-03  0.123E-03
 -15.829  0.321E-02  0.294E-02  0.130E-03  0.139E-03
 -15.819  0.304E-02  0.276E-02  0.134E-03  0.143E-03
 -15.809  0.287E-02  0.259E-02  0.136E-03  0.144E-03
 -15.799  0.279E-02  0.250E-02  0.138E-03  0.148E-03
 -15.789  0.287E-02  0.256E-02  0.148E-03  0.159E-03
 -15.779  0.295E-02  0.262E-02  0.157E-03  0.169E-03
 -15.769  0.303E-02  0.268E-02  0.166E-03  0.180E-03
 -15.759  0.312E-02  0.276E-02  0.174E-03  0.190E-03
 -15.749  0.321E-02  0.283E-02  0.182E-03  0.200E-03
 -15.739  0.331E-02  0.291E-02  0.190E-03  0.210E-03
 -15.729  0.342E-02  0.300E-02  0.197E-03  0.220E-03
 -15.719  0.353E-02  0.309E-02  0.204E-03  0.229E-03
 -15.709  0.707E-02  0.618E-02  0.415E-03  0.477E-03
 -15.699  0.588E-02  0.520E-02  0.306E-03  0.377E-03
 -15.689  0.457E-02  0.407E-02  0.211E-03  0.283E-03
 -15.679  0.313E-02  0.280E-02  0.128E-03  0.195E-03
 -15.669  0.173E-02  0.155E-02  0.642E-04  0.122E-03
 -15.659  0.155E-02  0.139E-02  0.491E-04  0.108E-03
 -15.649  0.135E-02  0.122E-02  0.361E-04  0.931E-04
 -15.639  0.121E-02  0.108E-02  0.399E-04  0.918E-04
 -15.629  0.115E-02  0.978E-03  0.662E-04  0.109E-03
 -15.619  0.109E-02  0.875E-03  0.932E-04  0.125E-03
 -15.609  0.103E-02  0.767E-03  0.121E-03  0.140E-03
 -15.599  0.957E-03  0.655E-03  0.149E-03  0.153E-03
 -15.589  0.106E-02  0.704E-03  0.179E-03  0.176E-03
 -15.579  0.129E-02  0.877E-03  0.208E-03  0.206E-03
 -15.569  0.153E-02  0.106E-02  0.235E-03  0.235E-03
 -15.559  0.288E-02  0.178E-02  0.742E-03  0.364E-03
 -15.549  0.744E-02  0.498E-02  0.155E-02  0.916E-03
 -15.539  0.174E-02  0.126E-02  0.234E-03  0.252E-03
 -15.529  0.177E-02  0.128E-02  0.231E-03  0.259E-03
 -15.519  0.179E-02  0.130E-02  0.228E-03  0.266E-03
 -15.509  0.182E-02  0.132E-02  0.226E-03  0.272E-03
 -15.499  0.184E-02  0.134E-02  0.225E-03  0.279E-03
 -15.489  0.187E-02  0.136E-02  0.224E-03  0.285E-03
 -15.479  0.189E-02  0.138E-02  0.225E-03  0.290E-03
 -15.469  0.191E-02  0.139E-02  0.227E-03  0.296E-03
 -15.459  0.194E-02  0.141E-02  0.230E-03  0.301E-03
 -15.449  0.196E-02  0.142E-02  0.233E-03  0.306E-03
 -15.439  0.199E-02  0.144E-02  0.238E-03  0.311E-03
 -15.429  0.202E-02  0.146E-02  0.244E-03  0.315E-03
 -15.419  0.204E-02  0.147E-02  0.250E-03  0.319E-03
 -15.409  0.207E-02  0.149E-02  0.257E-03  0.321E-03
 -15.399  0.209E-02  0.150E-02  0.265E-03  0.323E-03
 -15.389  0.211E-02  0.152E-02  0.274E-03  0.324E-03
 -15.379  0.214E-02  0.153E-02  0.283E-03  0.324E-03
 -15.369  0.216E-02  0.154E-02  0.293E-03  0.324E-03
 -15.359  0.278E-02  0.196E-02  0.404E-03  0.422E-03
 -15.349  0.261E-02  0.182E-02  0.388E-03  0.396E-03
 -15.339  0.244E-02  0.170E-02  0.373E-03  0.372E-03
 -15.329  0.229E-02  0.158E-02  0.357E-03  0.349E-03
 -15.319  0.217E-02  0.150E-02  0.345E-03  0.330E-03
 -15.309  0.210E-02  0.145E-02  0.334E-03  0.316E-03
 -15.299  0.203E-02  0.140E-02  0.324E-03  0.303E-03
 -15.289  0.203E-02  0.140E-02  0.329E-03  0.302E-03
 -15.279  0.204E-02  0.140E-02  0.336E-03  0.301E-03
 -15.269  0.204E-02  0.140E-02  0.342E-03  0.299E-03
 -15.259  0.204E-02  0.140E-02  0.349E-03  0.298E-03
 -15.249  0.204E-02  0.139E-02  0.355E-03  0.296E-03
 -15.239  0.204E-02  0.139E-02  0.362E-03  0.294E-03
 -15.229  0.204E-02  0.138E-02  0.369E-03  0.292E-03
 -15.219  0.204E-02  0.138E-02  0.376E-03  0.289E-03
 -15.209  0.204E-02  0.137E-02  0.383E-03  0.286E-03
 -15.199  0.160E-02  0.106E-02  0.326E-03  0.210E-03
 -15.189  0.161E-02  0.107E-02  0.329E-03  0.211E-03
 -15.179  0.162E-02  0.107E-02  0.333E-03  0.211E-03
 -15.169  0.163E-02  0.108E-02  0.337E-03  0.211E-03
 -15.159  0.164E-02  0.109E-02  0.341E-03  0.210E-03
 -15.149  0.165E-02  0.109E-02  0.345E-03  0.209E-03
 -15.139  0.157E-02  0.104E-02  0.330E-03  0.200E-03
 -15.129  0.155E-02  0.102E-02  0.303E-03  0.228E-03
 -15.119  0.153E-02  0.996E-03  0.276E-03  0.255E-03
 -15.109  0.157E-02  0.102E-02  0.266E-03  0.286E-03
 -15.099  0.156E-02  0.101E-02  0.259E-03  0.293E-03
 -15.089  0.156E-02  0.101E-02  0.253E-03  0.300E-03
 -15.079  0.155E-02  0.999E-03  0.246E-03  0.307E-03
 -15.069  0.154E-02  0.991E-03  0.239E-03  0.314E-03
 -15.059  0.153E-02  0.982E-03  0.232E-03  0.321E-03
 -15.049  0.152E-02  0.972E-03  0.224E-03  0.328E-03
 -15.039  0.151E-02  0.961E-03  0.217E-03  0.334E-03
 -15.029  0.182E-02  0.116E-02  0.288E-03  0.369E-03
 -15.019  0.260E-02  0.164E-02  0.375E-03  0.585E-03
 -15.009  0.248E-02  0.157E-02  0.363E-03  0.546E-03
 -14.999  0.235E-02  0.149E-02  0.349E-03  0.509E-03
 -14.989  0.222E-02  0.141E-02  0.334E-03  0.473E-03
 -14.979  0.209E-02  0.133E-02  0.317E-03  0.439E-03
 -14.969  0.195E-02  0.124E-02  0.299E-03  0.407E-03
 -14.959  0.181E-02  0.115E-02  0.279E-03  0.376E-03
 -14.949  0.166E-02  0.105E-02  0.258E-03  0.347E-03
 -14.939  0.151E-02  0.956E-03  0.235E-03  0.319E-03
 -14.929  0.136E-02  0.853E-03  0.211E-03  0.293E-03
 -14.919  0.120E-02  0.746E-03  0.185E-03  0.268E-03
 -14.909  0.105E-02  0.641E-03  0.158E-03  0.248E-03
 -14.899  0.961E-03  0.582E-03  0.143E-03  0.235E-03
 -14.889  0.928E-03  0.561E-03  0.141E-03  0.226E-03
 -14.879  0.895E-03  0.541E-03  0.138E-03  0.216E-03
 -14.869  0.888E-03  0.532E-03  0.145E-03  0.211E-03
 -14.859  0.212E-02  0.129E-02  0.383E-03  0.453E-03
 -14.849  0.182E-02  0.109E-02  0.324E-03  0.408E-03
 -14.839  0.151E-02  0.891E-03  0.269E-03  0.354E-03
 -14.829  0.121E-02  0.699E-03  0.218E-03  0.289E-03
 -14.819  0.897E-03  0.510E-03  0.172E-03  0.215E-03
 -14.809  0.587E-03  0.326E-03  0.130E-03  0.131E-03
 -14.799  0.628E-03  0.352E-03  0.147E-03  0.129E-03
 -14.789  0.741E-03  0.422E-03  0.177E-03  0.143E-03
 -14.779  0.855E-03  0.492E-03  0.207E-03  0.157E-03
 -14.769  0.970E-03  0.561E-03  0.237E-03  0.171E-03
 -14.759  0.108E-02  0.631E-03  0.268E-03  0.186E-03
 -14.749  0.120E-02  0.702E-03  0.298E-03  0.200E-03
 -14.739  0.132E-02  0.772E-03  0.329E-03  0.215E-03
 -14.729  0.143E-02  0.842E-03  0.360E-03  0.231E-03
 -14.719  0.155E-02  0.912E-03  0.391E-03  0.246E-03
 -14.709  0.167E-02  0.983E-03  0.423E-03  0.262E-03
 -14.699  0.101E-02  0.593E-03  0.204E-03  0.214E-03
 -14.689  0.847E-03  0.493E-03  0.190E-03  0.164E-03
 -14.679  0.848E-03  0.493E-03  0.190E-03  0.165E-03
 -14.669  0.849E-03  0.493E-03  0.189E-03  0.167E-03
 -14.659  0.850E-03  0.493E-03  0.189E-03  0.168E-03
 -14.649  0.852E-03  0.494E-03  0.189E-03  0.169E-03
 -14.639  0.853E-03  0.494E-03  0.189E-03  0.170E-03
 -14.629  0.855E-03  0.496E-03  0.189E-03  0.171E-03
 -14.619  0.858E-03  0.497E-03  0.188E-03  0.172E-03
 -14.609  0.860E-03  0.498E-03  0.188E-03  0.173E-03
 -14.599  0.862E-03  0.500E-03  0.188E-03  0.174E-03
 -14.589  0.865E-03  0.503E-03  0.188E-03  0.175E-03
 -14.579  0.868E-03  0.505E-03  0.188E-03  0.175E-03
 -14.569  0.872E-03  0.508E-03  0.188E-03  0.176E-03
 -14.559  0.145E-02  0.101E-02  0.200E-03  0.239E-03
 -14.549  0.300E-02  0.213E-02  0.381E-03  0.492E-03
 -14.539  0.414E-02  0.254E-02  0.776E-03  0.825E-03
 -14.529  0.929E-03  0.530E-03  0.206E-03  0.193E-03
 -14.519  0.918E-03  0.521E-03  0.205E-03  0.192E-03
 -14.509  0.907E-03  0.512E-03  0.205E-03  0.190E-03
 -14.499  0.896E-03  0.503E-03  0.204E-03  0.189E-03
 -14.489  0.885E-03  0.494E-03  0.204E-03  0.187E-03
 -14.479  0.875E-03  0.486E-03  0.203E-03  0.186E-03
 -14.469  0.865E-03  0.478E-03  0.202E-03  0.184E-03
 -14.459  0.855E-03  0.471E-03  0.201E-03  0.183E-03
 -14.449  0.858E-03  0.471E-03  0.202E-03  0.185E-03
 -14.439  0.866E-03  0.474E-03  0.203E-03  0.189E-03
 -14.429  0.873E-03  0.476E-03  0.205E-03  0.192E-03
 -14.419  0.881E-03  0.479E-03  0.207E-03  0.195E-03
 -14.409  0.889E-03  0.482E-03  0.209E-03  0.198E-03
 -14.399  0.896E-03  0.485E-03  0.211E-03  0.200E-03
 -14.389  0.904E-03  0.488E-03  0.214E-03  0.203E-03
 -14.379  0.912E-03  0.491E-03  0.216E-03  0.205E-03
 -14.369  0.920E-03  0.494E-03  0.219E-03  0.207E-03
 -14.359  0.928E-03  0.498E-03  0.222E-03  0.209E-03
 -14.349  0.936E-03  0.501E-03  0.225E-03  0.210E-03
 -14.339  0.944E-03  0.504E-03  0.229E-03  0.211E-03
 -14.329  0.943E-03  0.502E-03  0.231E-03  0.210E-03
 -14.319  0.941E-03  0.500E-03  0.232E-03  0.209E-03
 -14.309  0.940E-03  0.498E-03  0.234E-03  0.207E-03
 -14.299  0.943E-03  0.499E-03  0.238E-03  0.207E-03
 -14.289  0.947E-03  0.499E-03  0.241E-03  0.207E-03
 -14.279  0.950E-03  0.499E-03  0.244E-03  0.207E-03
 -14.269  0.953E-03  0.499E-03  0.247E-03  0.207E-03
 -14.259  0.955E-03  0.499E-03  0.250E-03  0.207E-03
 -14.249  0.958E-03  0.499E-03  0.253E-03  0.207E-03
 -14.239  0.960E-03  0.498E-03  0.255E-03  0.207E-03
 -14.229  0.963E-03  0.498E-03  0.257E-03  0.207E-03
 -14.219  0.115E-02  0.597E-03  0.305E-03  0.253E-03
 -14.209  0.974E-03  0.499E-03  0.278E-03  0.197E-03
 -14.199  0.794E-03  0.403E-03  0.240E-03  0.150E-03
 -14.189  0.615E-03  0.310E-03  0.193E-03  0.112E-03
 -14.179  0.438E-03  0.219E-03  0.137E-03  0.823E-04
 -14.169  0.274E-03  0.136E-03  0.750E-04  0.626E-04
 -14.159  0.669E-03  0.305E-03  0.112E-03  0.251E-03
 -14.149  0.102E-02  0.473E-03  0.179E-03  0.365E-03
 -14.139  0.104E-02  0.490E-03  0.191E-03  0.355E-03
 -14.129  0.966E-03  0.462E-03  0.181E-03  0.323E-03
 -14.119  0.895E-03  0.433E-03  0.172E-03  0.290E-03
 -14.109  0.824E-03  0.404E-03  0.162E-03  0.258E-03
 -14.099  0.751E-03  0.373E-03  0.152E-03  0.226E-03
 -14.089  0.677E-03  0.342E-03  0.141E-03  0.194E-03
 -14.079  0.602E-03  0.310E-03  0.131E-03  0.161E-03
 -14.069  0.268E-03  0.146E-03  0.572E-04  0.649E-04
 -14.059  0.274E-03  0.147E-03  0.589E-04  0.681E-04
 -14.049  0.280E-03  0.148E-03  0.607E-04  0.712E-04
 -14.039  0.285E-03  0.148E-03  0.627E-04  0.741E-04
 -14.029  0.291E-03  0.149E-03  0.648E-04  0.769E-04
 -14.019  0.296E-03  0.150E-03  0.671E-04  0.794E-04
 -14.009  0.301E-03  0.150E-03  0.696E-04  0.818E-04
 -13.999  0.306E-03  0.150E-03  0.723E-04  0.841E-04
 -13.989  0.311E-03  0.150E-03  0.751E-04  0.861E-04
 -13.979  0.315E-03  0.149E-03  0.780E-04  0.880E-04
 -13.969  0.320E-03  0.149E-03  0.812E-04  0.897E-04
 -13.959  0.324E-03  0.148E-03  0.845E-04  0.912E-04
 -13.949  0.328E-03  0.147E-03  0.879E-04  0.926E-04
 -13.939  0.332E-03  0.146E-03  0.915E-04  0.938E-04
 -13.929  0.335E-03  0.145E-03  0.953E-04  0.948E-04
 -13.919  0.816E-03  0.362E-03  0.239E-03  0.215E-03
 -13.909  0.819E-03  0.359E-03  0.246E-03  0.214E-03
 -13.899  0.822E-03  0.356E-03  0.255E-03  0.211E-03
 -13.889  0.824E-03  0.353E-03  0.265E-03  0.206E-03
 -13.879  0.827E-03  0.351E-03  0.277E-03  0.198E-03
 -13.869  0.829E-03  0.349E-03  0.291E-03  0.189E-03
 -13.859  0.666E-03  0.273E-03  0.254E-03  0.139E-03
 -13.849  0.432E-03  0.165E-03  0.172E-03  0.946E-04
 -13.839  0.337E-03  0.122E-03  0.119E-03  0.957E-04
 -13.829  0.430E-03  0.162E-03  0.129E-03  0.139E-03
 -13.819  0.522E-03  0.199E-03  0.144E-03  0.178E-03
 -13.809  0.613E-03  0.234E-03  0.166E-03  0.212E-03
 -13.799  0.704E-03  0.268E-03  0.194E-03  0.242E-03
 -13.789  0.794E-03  0.299E-03  0.229E-03  0.266E-03
 -13.779  0.884E-03  0.328E-03  0.270E-03  0.286E-03
 -13.769  0.202E-02  0.792E-03  0.628E-03  0.604E-03
 -13.759  0.111E-02  0.455E-03  0.344E-03  0.312E-03
 -13.749  0.763E-03  0.358E-03  0.214E-03  0.191E-03
 -13.739  0.706E-03  0.344E-03  0.194E-03  0.168E-03
 -13.729  0.644E-03  0.323E-03  0.174E-03  0.147E-03
 -13.719  0.577E-03  0.294E-03  0.154E-03  0.129E-03
 -13.709  0.512E-03  0.262E-03  0.136E-03  0.114E-03
 -13.699  0.442E-03  0.223E-03  0.117E-03  0.102E-03
 -13.689  0.370E-03  0.176E-03  0.100E-03  0.943E-04
 -13.679  0.298E-03  0.122E-03  0.856E-04  0.907E-04
 -13.669  0.296E-03  0.121E-03  0.853E-04  0.906E-04
 -13.659  0.297E-03  0.121E-03  0.855E-04  0.906E-04
 -13.649  0.298E-03  0.121E-03  0.858E-04  0.908E-04
 -13.639  0.312E-03  0.130E-03  0.903E-04  0.916E-04
 -13.629  0.328E-03  0.140E-03  0.950E-04  0.932E-04
 -13.619  0.345E-03  0.149E-03  0.100E-03  0.959E-04
 -13.609  0.364E-03  0.159E-03  0.106E-03  0.993E-04
 -13.599  0.383E-03  0.168E-03  0.112E-03  0.103E-03
 -13.589  0.403E-03  0.177E-03  0.118E-03  0.108E-03
 -13.579  0.424E-03  0.185E-03  0.124E-03  0.114E-03
 -13.569  0.445E-03  0.194E-03  0.131E-03  0.120E-03
 -13.559  0.468E-03  0.202E-03  0.139E-03  0.128E-03
 -13.549  0.491E-03  0.209E-03  0.146E-03  0.135E-03
 -13.539  0.515E-03  0.217E-03  0.154E-03  0.144E-03
 -13.529  0.541E-03  0.225E-03  0.163E-03  0.153E-03
 -13.519  0.567E-03  0.232E-03  0.172E-03  0.163E-03
 -13.509  0.462E-03  0.188E-03  0.138E-03  0.136E-03
 -13.499  0.451E-03  0.186E-03  0.133E-03  0.132E-03
 -13.489  0.447E-03  0.186E-03  0.133E-03  0.128E-03
 -13.479  0.966E-03  0.330E-03  0.247E-03  0.390E-03
 -13.469  0.406E-03  0.176E-03  0.116E-03  0.114E-03
 -13.459  0.366E-03  0.166E-03  0.101E-03  0.989E-04
 -13.449  0.363E-03  0.163E-03  0.101E-03  0.988E-04
 -13.439  0.360E-03  0.160E-03  0.101E-03  0.992E-04
 -13.429  0.357E-03  0.155E-03  0.102E-03  0.100E-03
 -13.419  0.352E-03  0.149E-03  0.102E-03  0.101E-03
 -13.409  0.346E-03  0.143E-03  0.102E-03  0.102E-03
 -13.399  0.342E-03  0.137E-03  0.102E-03  0.102E-03
 -13.389  0.337E-03  0.132E-03  0.102E-03  0.103E-03
 -13.379  0.332E-03  0.126E-03  0.102E-03  0.105E-03
 -13.369  0.327E-03  0.121E-03  0.100E-03  0.105E-03
 -13.359  0.320E-03  0.116E-03  0.974E-04  0.106E-03
 -13.349  0.312E-03  0.111E-03  0.944E-04  0.107E-03
 -13.339  0.306E-03  0.107E-03  0.915E-04  0.108E-03
 -13.329  0.306E-03  0.105E-03  0.906E-04  0.110E-03
 -13.319  0.306E-03  0.103E-03  0.896E-04  0.113E-03
 -13.309  0.306E-03  0.102E-03  0.886E-04  0.115E-03
 -13.299  0.305E-03  0.100E-03  0.876E-04  0.118E-03
 -13.289  0.305E-03  0.985E-04  0.866E-04  0.120E-03
 -13.279  0.305E-03  0.970E-04  0.855E-04  0.122E-03
 -13.269  0.374E-03  0.119E-03  0.111E-03  0.144E-03
 -13.259  0.374E-03  0.118E-03  0.111E-03  0.145E-03
 -13.249  0.374E-03  0.117E-03  0.112E-03  0.145E-03
 -13.239  0.375E-03  0.116E-03  0.114E-03  0.145E-03
 -13.229  0.375E-03  0.115E-03  0.115E-03  0.145E-03
 -13.219  0.375E-03  0.113E-03  0.116E-03  0.145E-03
 -13.209  0.375E-03  0.112E-03  0.118E-03  0.145E-03
 -13.199  0.375E-03  0.111E-03  0.119E-03  0.145E-03
 -13.189  0.375E-03  0.110E-03  0.121E-03  0.144E-03
 -13.179  0.375E-03  0.109E-03  0.123E-03  0.144E-03
 -13.169  0.375E-03  0.108E-03  0.124E-03  0.143E-03
 -13.159  0.377E-03  0.107E-03  0.127E-03  0.142E-03
 -13.149  0.381E-03  0.106E-03  0.131E-03  0.144E-03
 -13.139  0.537E-03  0.143E-03  0.187E-03  0.207E-03
 -13.129  0.702E-03  0.188E-03  0.269E-03  0.245E-03
 -13.119  0.874E-03  0.239E-03  0.378E-03  0.257E-03
 -13.109  0.675E-03  0.181E-03  0.280E-03  0.214E-03
 -13.099  0.585E-03  0.152E-03  0.230E-03  0.203E-03
 -13.089  0.492E-03  0.126E-03  0.202E-03  0.164E-03
 -13.079  0.393E-03  0.101E-03  0.195E-03  0.975E-04
 -13.069  0.370E-03  0.920E-04  0.190E-03  0.885E-04
 -13.059  0.310E-03  0.740E-04  0.160E-03  0.762E-04
 -13.049  0.252E-03  0.585E-04  0.133E-03  0.611E-04
 -13.039  0.216E-03  0.494E-04  0.110E-03  0.571E-04
 -13.029  0.196E-03  0.452E-04  0.904E-04  0.600E-04
 -13.019  0.133E-04  0.331E-05  0.890E-05  0.112E-05
 -13.009  0.196E-04  0.610E-05  0.123E-04  0.118E-05
 -12.999  0.410E-04  0.162E-04  0.230E-04  0.171E-05
 -12.989  0.629E-04  0.254E-04  0.345E-04  0.306E-05
 -12.979  0.888E-04  0.346E-04  0.473E-04  0.695E-05
 -12.969  0.117E-03  0.428E-04  0.614E-04  0.129E-04
 -12.959  0.148E-03  0.502E-04  0.767E-04  0.208E-04
 -12.949  0.200E-03  0.626E-04  0.105E-03  0.322E-04
 -12.939  0.260E-03  0.753E-04  0.137E-03  0.474E-04
 -12.929  0.321E-03  0.869E-04  0.169E-03  0.651E-04
 -12.919  0.385E-03  0.973E-04  0.202E-03  0.851E-04
 -12.909  0.499E-03  0.120E-03  0.269E-03  0.111E-03
 -12.899  0.672E-03  0.141E-03  0.338E-03  0.193E-03
 -12.889  0.500E-03  0.967E-04  0.244E-03  0.159E-03
 -12.879  0.480E-03  0.860E-04  0.229E-03  0.165E-03
 -12.869  0.458E-03  0.767E-04  0.215E-03  0.166E-03
 -12.859  0.431E-03  0.687E-04  0.200E-03  0.163E-03
 -12.849  0.402E-03  0.621E-04  0.185E-03  0.155E-03
 -12.839  0.381E-03  0.581E-04  0.176E-03  0.147E-03
 -12.829  0.421E-03  0.617E-04  0.193E-03  0.166E-03
 -12.819  0.460E-03  0.660E-04  0.211E-03  0.183E-03
 -12.809  0.498E-03  0.710E-04  0.228E-03  0.200E-03
 -12.799  0.388E-03  0.603E-04  0.179E-03  0.149E-03
 -12.789  0.378E-03  0.600E-04  0.175E-03  0.143E-03
 -12.779  0.582E-03  0.110E-03  0.329E-03  0.142E-03
 -12.769  0.470E-03  0.112E-03  0.234E-03  0.124E-03
 -12.759  0.263E-03  0.489E-04  0.123E-03  0.919E-04
 -12.749  0.241E-03  0.447E-04  0.113E-03  0.834E-04
 -12.739  0.219E-03  0.410E-04  0.103E-03  0.745E-04
 -12.729  0.196E-03  0.378E-04  0.931E-04  0.652E-04
 -12.719  0.173E-03  0.350E-04  0.823E-04  0.554E-04
 -12.709  0.149E-03  0.328E-04  0.711E-04  0.453E-04
 -12.699  0.125E-03  0.311E-04  0.595E-04  0.346E-04
 -12.689  0.104E-03  0.298E-04  0.488E-04  0.251E-04
 -12.679  0.102E-03  0.289E-04  0.470E-04  0.260E-04
 -12.669  0.100E-03  0.280E-04  0.451E-04  0.271E-04
 -12.659  0.990E-04  0.273E-04  0.433E-04  0.285E-04
 -12.649  0.984E-04  0.268E-04  0.416E-04  0.300E-04
 -12.639  0.102E-03  0.264E-04  0.437E-04  0.317E-04
 -12.629  0.118E-03  0.344E-04  0.489E-04  0.347E-04
 -12.619  0.140E-03  0.417E-04  0.575E-04  0.404E-04
 -12.609  0.165E-03  0.470E-04  0.693E-04  0.491E-04
 -12.599  0.195E-03  0.501E-04  0.842E-04  0.607E-04
 -12.589  0.228E-03  0.511E-04  0.102E-03  0.751E-04
 -12.579  0.266E-03  0.500E-04  0.124E-03  0.924E-04
 -12.569  0.139E-03  0.224E-04  0.669E-04  0.499E-04
 -12.559  0.143E-03  0.215E-04  0.715E-04  0.503E-04
 -12.549  0.147E-03  0.207E-04  0.769E-04  0.498E-04
 -12.539  0.151E-03  0.199E-04  0.831E-04  0.484E-04
 -12.529  0.154E-03  0.191E-04  0.891E-04  0.461E-04
 -12.519  0.166E-03  0.197E-04  0.872E-04  0.590E-04
 -12.509  0.168E-03  0.192E-04  0.854E-04  0.639E-04
 -12.499  0.162E-03  0.177E-04  0.797E-04  0.646E-04
 -12.489  0.156E-03  0.163E-04  0.737E-04  0.657E-04
 -12.479  0.149E-03  0.150E-04  0.673E-04  0.670E-04
 -12.469  0.143E-03  0.137E-04  0.605E-04  0.686E-04
 -12.459  0.136E-03  0.125E-04  0.534E-04  0.705E-04
 -12.449  0.130E-03  0.114E-04  0.459E-04  0.727E-04
 -12.439  0.124E-03  0.103E-04  0.381E-04  0.752E-04
 -12.429  0.119E-03  0.948E-05  0.320E-04  0.779E-04
 -12.419  0.119E-03  0.876E-05  0.336E-04  0.762E-04
 -12.409  0.118E-03  0.805E-05  0.356E-04  0.740E-04
 -12.399  0.117E-03  0.734E-05  0.381E-04  0.713E-04
 -12.389  0.116E-03  0.664E-05  0.409E-04  0.683E-04
 -12.379  0.115E-03  0.595E-05  0.442E-04  0.648E-04
 -12.369  0.114E-03  0.527E-05  0.479E-04  0.610E-04
 -12.359  0.113E-03  0.460E-05  0.520E-04  0.567E-04
 -12.349  0.158E-03  0.570E-05  0.741E-04  0.784E-04
 -12.339  0.128E-03  0.406E-05  0.601E-04  0.641E-04
 -12.329  0.985E-04  0.269E-05  0.462E-04  0.496E-04
 -12.319  0.691E-04  0.158E-05  0.324E-04  0.351E-04
 -12.309  0.399E-04  0.736E-06  0.187E-04  0.205E-04
 -12.299  0.111E-04  0.154E-06  0.521E-05  0.573E-05
 -12.289  0.000E+00  0.000E+00  0.000E+00  0.000E+00
 -12.279  0.000E+00  0.000E+00  0.000E+00  0.000E+00
 -12.269  0.000E+00  0.000E+00  0.000E+00  0.000E+00
 -12.259  0.000E+00  0.000E+00  0.000E+00  0.000E+00
 -12.249  0.000E+00  0.000E+00  0.000E+00  0.000E+00
 -12.239  0.000E+00  0.000E+00  0.000E+00  0.000E+00
 -12.229  0.000E+00  0.000E+00  0.000E+00  0.000E+00
 -12.219  0.000E+00  0.000E+00  0.000E+00  0.000E+00
 -12.209  0.000E+00  0.000E+00  0.000E+00  0.000E+00
 -12.199  0.000E+00  0.000E+00  0.000E+00  0.000E+00
 -12.189  0.000E+00  0.000E+00  0.000E+00  0.000E+00
 -12.179  0.000E+00  0.000E+00  0.000E+00  0.000E+00
 -12.169  0.000E+00  0.000E+00  0.000E+00  0.000E+00
 -12.159  0.000E+00  0.000E+00  0.000E+00  0.000E+00
 -12.149  0.000E+00  0.000E+00  0.000E+00  0.000E+00
 -12.139  0.000E+00  0.000E+00  0.000E+00  0.000E+00
 -12.129  0.000E+00  0.000E+00  0.000E+00  0.000E+00
 -12.119  0.000E+00  0.000E+00  0.000E+00  0.000E+00
 -12.109  0.000E+00  0.000E+00  0.000E+00  0.000E+00
 -12.099  0.000E+00  0.000E+00  0.000E+00  0.000E+00
 -12.089  0.000E+00  0.000E+00  0.000E+00  0.000E+00
 -12.079  0.000E+00  0.000E+00  0.000E+00  0.000E+00
 -12.069  0.000E+00  0.000E+00  0.000E+00  0.000E+00
 -12.059  0.000E+00  0.000E+00  0.000E+00  0.000E+00
 -12.049  0.000E+00  0.000E+00  0.000E+00  0.000E+00
 -12.039  0.000E+00  0.000E+00  0.000E+00  0.000E+00
 -12.029  0.000E+00  0.000E+00  0.000E+00  0.000E+00
 -12.019  0.000E+00  0.000E+00  0.000E+00  0.000E+00
 -12.009  0.000E+00  0.000E+00  0.000E+00  0.000E+00
 -11.999  0.327E-02  0.307E-02  0.897E-04  0.106E-03
 -11.989  0.109E-01  0.924E-02  0.823E-03  0.872E-03
 -11.979  0.200E-01  0.153E-01  0.229E-02  0.238E-02
 -11.969  0.141E-01  0.992E-02  0.208E-02  0.213E-02
 -11.959  0.159E-01  0.104E-01  0.274E-02  0.280E-02
 -11.949  0.178E-01  0.108E-01  0.345E-02  0.351E-02
 -11.939  0.197E-01  0.112E-01  0.422E-02  0.428E-02
 -11.929  0.218E-01  0.116E-01  0.503E-02  0.509E-02
 -11.919  0.239E-01  0.121E-01  0.589E-02  0.596E-02
 -11.909  0.261E-01  0.125E-01  0.681E-02  0.687E-02
 -11.899  0.269E-01  0.122E-01  0.732E-02  0.738E-02
 -11.889  0.267E-01  0.115E-01  0.757E-02  0.762E-02
 -11.879  0.264E-01  0.109E-01  0.772E-02  0.776E-02
 -11.869  0.267E-01  0.106E-01  0.804E-02  0.807E-02
 -11.859  0.282E-01  0.108E-01  0.869E-02  0.869E-02
 -11.849  0.296E-01  0.110E-01  0.934E-02  0.930E-02
 -11.839  0.311E-01  0.112E-01  0.100E-01  0.988E-02
 -11.829  0.326E-01  0.115E-01  0.107E-01  0.105E-01
 -11.819  0.341E-01  0.117E-01  0.113E-01  0.110E-01
 -11.809  0.356E-01  0.120E-01  0.120E-01  0.116E-01
 -11.799  0.371E-01  0.123E-01  0.127E-01  0.121E-01
 -11.789  0.386E-01  0.126E-01  0.134E-01  0.126E-01
 -11.779  0.401E-01  0.129E-01  0.140E-01  0.131E-01
 -11.769  0.808E-01  0.254E-01  0.282E-01  0.272E-01
 -11.759  0.678E-01  0.223E-01  0.231E-01  0.224E-01
 -11.749  0.547E-01  0.187E-01  0.181E-01  0.179E-01
 -11.739  0.417E-01  0.148E-01  0.131E-01  0.138E-01
 -11.729  0.287E-01  0.105E-01  0.814E-02  0.101E-01
 -11.719  0.176E-01  0.646E-02  0.396E-02  0.714E-02
 -11.709  0.157E-01  0.597E-02  0.319E-02  0.650E-02
 -11.699  0.142E-01  0.547E-02  0.268E-02  0.606E-02
 -11.689  0.164E-01  0.531E-02  0.372E-02  0.738E-02
 -11.679  0.186E-01  0.514E-02  0.487E-02  0.863E-02
 -11.669  0.209E-01  0.494E-02  0.613E-02  0.980E-02
 -11.659  0.231E-01  0.472E-02  0.750E-02  0.109E-01
 -11.649  0.254E-01  0.448E-02  0.899E-02  0.120E-01
 -11.639  0.277E-01  0.422E-02  0.106E-01  0.129E-01
 -11.629  0.304E-01  0.413E-02  0.123E-01  0.140E-01
 -11.619  0.349E-01  0.487E-02  0.141E-01  0.159E-01
 -11.609  0.697E-01  0.721E-02  0.395E-01  0.229E-01
 -11.599  0.134E+00  0.144E-01  0.775E-01  0.425E-01
 -11.589  0.193E+00  0.259E-01  0.953E-01  0.715E-01
 -11.579  0.415E-01  0.621E-02  0.165E-01  0.188E-01
 -11.569  0.423E-01  0.630E-02  0.166E-01  0.194E-01
 -11.559  0.432E-01  0.640E-02  0.168E-01  0.200E-01
 -11.549  0.441E-01  0.650E-02  0.170E-01  0.207E-01
 -11.539  0.451E-01  0.659E-02  0.172E-01  0.213E-01
 -11.529  0.461E-01  0.668E-02  0.175E-01  0.219E-01
 -11.519  0.472E-01  0.678E-02  0.179E-01  0.225E-01
 -11.509  0.483E-01  0.687E-02  0.183E-01  0.231E-01
 -11.499  0.495E-01  0.696E-02  0.188E-01  0.237E-01
 -11.489  0.507E-01  0.705E-02  0.193E-01  0.243E-01
 -11.479  0.520E-01  0.715E-02  0.199E-01  0.250E-01
 -11.469  0.534E-01  0.726E-02  0.206E-01  0.256E-01
 -11.459  0.548E-01  0.737E-02  0.213E-01  0.262E-01
 -11.449  0.562E-01  0.748E-02  0.220E-01  0.267E-01
 -11.439  0.576E-01  0.758E-02  0.228E-01  0.272E-01
 -11.429  0.590E-01  0.769E-02  0.236E-01  0.277E-01
 -11.419  0.604E-01  0.780E-02  0.244E-01  0.281E-01
 -11.409  0.618E-01  0.790E-02  0.253E-01  0.285E-01
 -11.399  0.632E-01  0.801E-02  0.263E-01  0.289E-01
 -11.389  0.646E-01  0.811E-02  0.272E-01  0.292E-01
 -11.379  0.887E-01  0.107E-01  0.380E-01  0.400E-01
 -11.369  0.848E-01  0.999E-02  0.367E-01  0.381E-01
 -11.359  0.811E-01  0.937E-02  0.355E-01  0.363E-01
 -11.349  0.775E-01  0.881E-02  0.342E-01  0.345E-01
 -11.339  0.741E-01  0.830E-02  0.331E-01  0.327E-01
 -11.329  0.718E-01  0.798E-02  0.323E-01  0.315E-01
 -11.319  0.699E-01  0.774E-02  0.317E-01  0.304E-01
 -11.309  0.705E-01  0.773E-02  0.323E-01  0.305E-01
 -11.299  0.718E-01  0.776E-02  0.332E-01  0.308E-01
 -11.289  0.730E-01  0.780E-02  0.342E-01  0.310E-01
 -11.279  0.742E-01  0.782E-02  0.351E-01  0.313E-01
 -11.269  0.755E-01  0.785E-02  0.361E-01  0.316E-01
 -11.259  0.767E-01  0.786E-02  0.370E-01  0.318E-01
 -11.249  0.779E-01  0.788E-02  0.380E-01  0.321E-01
 -11.239  0.791E-01  0.789E-02  0.390E-01  0.323E-01
 -11.229  0.804E-01  0.789E-02  0.400E-01  0.325E-01
 -11.219  0.816E-01  0.789E-02  0.410E-01  0.327E-01
 -11.209  0.828E-01  0.788E-02  0.420E-01  0.328E-01
 -11.199  0.667E-01  0.618E-02  0.354E-01  0.251E-01
 -11.189  0.678E-01  0.623E-02  0.361E-01  0.255E-01
 -11.179  0.689E-01  0.628E-02  0.367E-01  0.259E-01
 -11.169  0.700E-01  0.633E-02  0.374E-01  0.262E-01
 -11.159  0.711E-01  0.638E-02  0.382E-01  0.266E-01
 -11.149  0.722E-01  0.644E-02  0.389E-01  0.268E-01
 -11.139  0.724E-01  0.641E-02  0.392E-01  0.268E-01
 -11.129  0.711E-01  0.619E-02  0.363E-01  0.285E-01
 -11.119  0.715E-01  0.612E-02  0.339E-01  0.314E-01
 -11.109  0.725E-01  0.612E-02  0.319E-01  0.345E-01
 -11.099  0.744E-01  0.623E-02  0.319E-01  0.363E-01
 -11.089  0.751E-01  0.623E-02  0.315E-01  0.374E-01
 -11.079  0.757E-01  0.624E-02  0.310E-01  0.385E-01
 -11.069  0.763E-01  0.624E-02  0.305E-01  0.396E-01
 -11.059  0.769E-01  0.625E-02  0.300E-01  0.407E-01
 -11.049  0.774E-01  0.625E-02  0.294E-01  0.417E-01
 -11.039  0.778E-01  0.625E-02  0.288E-01  0.428E-01
 -11.029  0.783E-01  0.625E-02  0.281E-01  0.440E-01
 -11.019  0.945E-01  0.755E-02  0.376E-01  0.494E-01
 -11.009  0.137E+00  0.108E-01  0.491E-01  0.774E-01
 -10.999  0.131E+00  0.104E-01  0.477E-01  0.733E-01
 -10.989  0.125E+00  0.995E-02  0.461E-01  0.693E-01
 -10.979  0.119E+00  0.951E-02  0.444E-01  0.655E-01
 -10.969  0.113E+00  0.905E-02  0.425E-01  0.617E-01
 -10.959  0.107E+00  0.858E-02  0.404E-01  0.581E-01
 -10.949  0.101E+00  0.809E-02  0.382E-01  0.545E-01
 -10.939  0.944E-01  0.759E-02  0.357E-01  0.511E-01
 -10.929  0.880E-01  0.707E-02  0.331E-01  0.478E-01
 -10.919  0.815E-01  0.653E-02  0.303E-01  0.446E-01
 -10.909  0.749E-01  0.598E-02  0.274E-01  0.415E-01
 -10.899  0.682E-01  0.541E-02  0.242E-01  0.386E-01
 -10.889  0.618E-01  0.485E-02  0.209E-01  0.360E-01
 -10.879  0.576E-01  0.447E-02  0.187E-01  0.344E-01
 -10.869  0.563E-01  0.435E-02  0.185E-01  0.335E-01
 -10.859  0.565E-01  0.431E-02  0.193E-01  0.329E-01
 -10.849  0.574E-01  0.429E-02  0.206E-01  0.325E-01
 -10.839  0.584E-01  0.428E-02  0.218E-01  0.323E-01
 -10.829  0.148E+00  0.102E-01  0.618E-01  0.765E-01
 -10.819  0.127E+00  0.889E-02  0.499E-01  0.681E-01
 -10.809  0.106E+00  0.743E-02  0.400E-01  0.581E-01
 -10.799  0.844E-01  0.579E-02  0.320E-01  0.466E-01
 -10.789  0.635E-01  0.397E-02  0.261E-01  0.334E-01
 -10.779  0.477E-01  0.243E-02  0.231E-01  0.222E-01
 -10.769  0.564E-01  0.272E-02  0.286E-01  0.251E-01
 -10.759  0.670E-01  0.310E-02  0.354E-01  0.285E-01
 -10.749  0.775E-01  0.352E-02  0.422E-01  0.318E-01
 -10.739  0.880E-01  0.396E-02  0.490E-01  0.350E-01
 -10.729  0.984E-01  0.444E-02  0.558E-01  0.382E-01
 -10.719  0.109E+00  0.495E-02  0.625E-01  0.413E-01
 -10.709  0.119E+00  0.549E-02  0.692E-01  0.444E-01
 -10.699  0.129E+00  0.606E-02  0.759E-01  0.474E-01
 -10.689  0.140E+00  0.666E-02  0.826E-01  0.504E-01
 -10.679  0.150E+00  0.729E-02  0.892E-01  0.533E-01
 -10.669  0.797E-01  0.338E-02  0.411E-01  0.353E-01
 -10.659  0.805E-01  0.339E-02  0.413E-01  0.358E-01
 -10.649  0.814E-01  0.341E-02  0.416E-01  0.364E-01
 -10.639  0.822E-01  0.344E-02  0.418E-01  0.369E-01
 -10.629  0.829E-01  0.347E-02  0.421E-01  0.374E-01
 -10.619  0.837E-01  0.350E-02  0.423E-01  0.379E-01
 -10.609  0.844E-01  0.353E-02  0.425E-01  0.384E-01
 -10.599  0.851E-01  0.357E-02  0.427E-01  0.389E-01
 -10.589  0.858E-01  0.361E-02  0.428E-01  0.394E-01
 -10.579  0.864E-01  0.366E-02  0.430E-01  0.398E-01
 -10.569  0.871E-01  0.371E-02  0.431E-01  0.402E-01
 -10.559  0.877E-01  0.376E-02  0.432E-01  0.407E-01
 -10.549  0.882E-01  0.382E-02  0.433E-01  0.411E-01
 -10.539  0.888E-01  0.388E-02  0.434E-01  0.415E-01
 -10.529  0.893E-01  0.394E-02  0.435E-01  0.419E-01
 -10.519  0.898E-01  0.401E-02  0.435E-01  0.422E-01
 -10.509  0.995E-01  0.487E-02  0.474E-01  0.472E-01
 -10.499  0.218E+00  0.184E-01  0.848E-01  0.115E+00
 -10.489  0.425E+00  0.236E-01  0.190E+00  0.211E+00
 -10.479  0.999E-01  0.444E-02  0.478E-01  0.477E-01
 -10.469  0.101E+00  0.441E-02  0.476E-01  0.486E-01
 -10.459  0.102E+00  0.437E-02  0.474E-01  0.498E-01
 -10.449  0.103E+00  0.432E-02  0.471E-01  0.512E-01
 -10.439  0.104E+00  0.428E-02  0.467E-01  0.528E-01
 -10.429  0.105E+00  0.422E-02  0.462E-01  0.547E-01
 -10.419  0.107E+00  0.417E-02  0.457E-01  0.568E-01
 -10.409  0.109E+00  0.416E-02  0.453E-01  0.596E-01
 -10.399  0.112E+00  0.416E-02  0.452E-01  0.622E-01
 -10.389  0.114E+00  0.415E-02  0.451E-01  0.647E-01
 -10.379  0.116E+00  0.415E-02  0.451E-01  0.670E-01
 -10.369  0.119E+00  0.416E-02  0.453E-01  0.692E-01
 -10.359  0.121E+00  0.416E-02  0.457E-01  0.711E-01
 -10.349  0.123E+00  0.417E-02  0.461E-01  0.729E-01
 -10.339  0.125E+00  0.418E-02  0.467E-01  0.746E-01
 -10.329  0.128E+00  0.420E-02  0.474E-01  0.760E-01
 -10.319  0.129E+00  0.418E-02  0.479E-01  0.767E-01
 -10.309  0.130E+00  0.416E-02  0.483E-01  0.772E-01
 -10.299  0.132E+00  0.419E-02  0.495E-01  0.778E-01
 -10.289  0.134E+00  0.423E-02  0.510E-01  0.784E-01
 -10.279  0.136E+00  0.428E-02  0.524E-01  0.790E-01
 -10.269  0.138E+00  0.433E-02  0.540E-01  0.795E-01
 -10.259  0.140E+00  0.439E-02  0.556E-01  0.801E-01
 -10.249  0.142E+00  0.445E-02  0.573E-01  0.806E-01
 -10.239  0.145E+00  0.451E-02  0.591E-01  0.811E-01
 -10.229  0.147E+00  0.459E-02  0.609E-01  0.816E-01
 -10.219  0.150E+00  0.466E-02  0.628E-01  0.821E-01
 -10.209  0.152E+00  0.475E-02  0.648E-01  0.826E-01
 -10.199  0.155E+00  0.483E-02  0.669E-01  0.830E-01
 -10.189  0.158E+00  0.494E-02  0.691E-01  0.836E-01
 -10.179  0.168E+00  0.528E-02  0.756E-01  0.870E-01
 -10.169  0.178E+00  0.561E-02  0.831E-01  0.894E-01
 -10.159  0.189E+00  0.592E-02  0.919E-01  0.909E-01
 -10.149  0.199E+00  0.620E-02  0.102E+00  0.915E-01
 -10.139  0.264E+00  0.917E-02  0.162E+00  0.927E-01
 -10.129  0.115E+00  0.339E-02  0.749E-01  0.369E-01
 -10.119  0.128E+00  0.359E-02  0.872E-01  0.370E-01
 -10.109  0.148E+00  0.442E-02  0.100E+00  0.430E-01
 -10.099  0.172E+00  0.585E-02  0.105E+00  0.604E-01
 -10.089  0.197E+00  0.742E-02  0.101E+00  0.886E-01
 -10.079  0.959E-01  0.428E-02  0.496E-01  0.420E-01
 -10.069  0.107E+00  0.449E-02  0.560E-01  0.470E-01
 -10.059  0.121E+00  0.461E-02  0.640E-01  0.523E-01
 -10.049  0.153E+00  0.544E-02  0.841E-01  0.634E-01
 -10.039  0.143E+00  0.514E-02  0.782E-01  0.596E-01
 -10.029  0.134E+00  0.490E-02  0.735E-01  0.560E-01
 -10.019  0.126E+00  0.467E-02  0.693E-01  0.524E-01
 -10.009  0.118E+00  0.443E-02  0.653E-01  0.486E-01
  -9.999  0.110E+00  0.418E-02  0.613E-01  0.447E-01
  -9.989  0.102E+00  0.392E-02  0.575E-01  0.406E-01
  -9.979  0.936E-01  0.364E-02  0.537E-01  0.363E-01
  -9.969  0.852E-01  0.336E-02  0.501E-01  0.318E-01
  -9.959  0.768E-01  0.306E-02  0.466E-01  0.271E-01
  -9.949  0.683E-01  0.277E-02  0.432E-01  0.223E-01
  -9.939  0.621E-01  0.251E-02  0.406E-01  0.190E-01
  -9.929  0.616E-01  0.223E-02  0.396E-01  0.198E-01
  -9.919  0.663E-01  0.225E-02  0.426E-01  0.214E-01
  -9.909  0.798E-01  0.257E-02  0.525E-01  0.248E-01
  -9.899  0.949E-01  0.293E-02  0.620E-01  0.299E-01
  -9.889  0.114E+00  0.377E-02  0.726E-01  0.373E-01
  -9.879  0.141E+00  0.397E-02  0.891E-01  0.484E-01
  -9.869  0.176E+00  0.472E-02  0.109E+00  0.625E-01
  -9.859  0.209E+00  0.546E-02  0.125E+00  0.792E-01
  -9.849  0.242E+00  0.619E-02  0.137E+00  0.985E-01
  -9.839  0.204E+00  0.511E-02  0.111E+00  0.871E-01
  -9.829  0.221E+00  0.545E-02  0.114E+00  0.102E+00
  -9.819  0.237E+00  0.574E-02  0.111E+00  0.120E+00
  -9.809  0.251E+00  0.599E-02  0.103E+00  0.142E+00
  -9.799  0.262E+00  0.620E-02  0.897E-01  0.166E+00
  -9.789  0.227E+00  0.529E-02  0.763E-01  0.145E+00
  -9.779  0.220E-01  0.525E-03  0.108E-01  0.106E-01
  -9.769  0.276E-02  0.920E-04  0.131E-02  0.136E-02
  -9.759  0.503E-02  0.140E-03  0.242E-02  0.247E-02
  -9.749  0.760E-02  0.193E-03  0.368E-02  0.372E-02
  -9.739  0.141E-01  0.735E-03  0.686E-02  0.653E-02
  -9.729  0.214E-01  0.893E-03  0.104E-01  0.101E-01
  -9.719  0.301E-01  0.106E-02  0.147E-01  0.144E-01
  -9.709  0.400E-01  0.120E-02  0.196E-01  0.192E-01
  -9.699  0.481E-01  0.124E-02  0.236E-01  0.232E-01
  -9.689  0.537E-01  0.123E-02  0.265E-01  0.260E-01
  -9.679  0.570E-01  0.126E-02  0.283E-01  0.275E-01
  -9.669  0.579E-01  0.126E-02  0.289E-01  0.278E-01
  -9.659  0.564E-01  0.121E-02  0.284E-01  0.268E-01
  -9.649  0.524E-01  0.113E-02  0.268E-01  0.245E-01
  -9.639  0.460E-01  0.101E-02  0.240E-01  0.210E-01
  -9.629  0.372E-01  0.848E-03  0.201E-01  0.163E-01
  -9.619  0.259E-01  0.648E-03  0.150E-01  0.102E-01
  -9.609  0.122E-01  0.407E-03  0.880E-02  0.297E-02
  -9.599  0.791E-02  0.343E-03  0.728E-02  0.281E-03
  -9.589  0.931E-02  0.383E-03  0.861E-02  0.323E-03
  -9.579  0.108E-01  0.426E-03  0.100E-01  0.366E-03
  -9.569  0.125E-01  0.473E-03  0.116E-01  0.412E-03
  -9.559  0.147E-01  0.551E-03  0.133E-01  0.789E-03
  -9.549  0.178E-01  0.645E-03  0.152E-01  0.195E-02
  -9.539  0.219E-01  0.752E-03  0.172E-01  0.390E-02
  -9.529  0.269E-01  0.872E-03  0.194E-01  0.665E-02
  -9.519  0.324E-01  0.777E-03  0.216E-01  0.100E-01
  -9.509  0.392E-01  0.846E-03  0.240E-01  0.143E-01
  -9.499  0.469E-01  0.925E-03  0.266E-01  0.193E-01
  -9.489  0.554E-01  0.994E-03  0.293E-01  0.250E-01
  -9.479  0.648E-01  0.108E-02  0.322E-01  0.316E-01
  -9.469  0.753E-01  0.118E-02  0.352E-01  0.389E-01
  -9.459  0.866E-01  0.130E-02  0.384E-01  0.469E-01
  -9.449  0.990E-01  0.144E-02  0.418E-01  0.558E-01
  -9.439  0.856E-01  0.127E-02  0.191E-01  0.652E-01
  -9.429  0.582E-01  0.876E-03  0.186E-01  0.387E-01
  -9.419  0.533E-01  0.786E-03  0.184E-01  0.341E-01
  -9.409  0.488E-01  0.705E-03  0.181E-01  0.300E-01
  -9.399  0.449E-01  0.632E-03  0.179E-01  0.264E-01
  -9.389  0.414E-01  0.565E-03  0.175E-01  0.233E-01
  -9.379  0.385E-01  0.515E-03  0.172E-01  0.207E-01
  -9.369  0.360E-01  0.475E-03  0.169E-01  0.187E-01
  -9.359  0.341E-01  0.440E-03  0.165E-01  0.171E-01
  -9.349  0.326E-01  0.411E-03  0.161E-01  0.161E-01
  -9.339  0.316E-01  0.393E-03  0.157E-01  0.155E-01
  -9.329  0.309E-01  0.402E-03  0.153E-01  0.151E-01
  -9.319  0.301E-01  0.414E-03  0.149E-01  0.148E-01
  -9.309  0.292E-01  0.428E-03  0.144E-01  0.143E-01
  -9.299  0.283E-01  0.443E-03  0.139E-01  0.139E-01
  -9.289  0.306E-01  0.205E-02  0.143E-01  0.142E-01
  -9.279  0.282E-01  0.142E-02  0.134E-01  0.134E-01
  -9.269  0.261E-01  0.813E-03  0.125E-01  0.127E-01
  -9.259  0.246E-01  0.302E-03  0.120E-01  0.123E-01
  -9.249  0.231E-01  0.238E-03  0.113E-01  0.115E-01
  -9.239  0.212E-01  0.198E-03  0.104E-01  0.106E-01
  -9.229  0.195E-01  0.183E-03  0.961E-02  0.974E-02
  -9.219  0.181E-01  0.177E-03  0.889E-02  0.907E-02
  -9.209  0.167E-01  0.171E-03  0.815E-02  0.837E-02
  -9.199  0.152E-01  0.167E-03  0.738E-02  0.764E-02
  -9.189  0.136E-01  0.174E-03  0.658E-02  0.689E-02
  -9.179  0.121E-01  0.198E-03  0.577E-02  0.614E-02
  -9.169  0.105E-01  0.220E-03  0.494E-02  0.537E-02
  -9.159  0.892E-02  0.240E-03  0.409E-02  0.459E-02
  -9.149  0.727E-02  0.257E-03  0.322E-02  0.379E-02
  -9.139  0.559E-02  0.272E-03  0.234E-02  0.298E-02
  -9.129  0.388E-02  0.285E-03  0.143E-02  0.216E-02
  -9.119  0.233E-02  0.283E-03  0.862E-03  0.119E-02
  -9.109  0.224E-02  0.279E-03  0.951E-03  0.101E-02
  -9.099  0.231E-02  0.275E-03  0.104E-02  0.998E-03
  -9.089  0.239E-02  0.270E-03  0.112E-02  0.999E-03
  -9.079  0.248E-02  0.266E-03  0.121E-02  0.101E-02
  -9.069  0.257E-02  0.261E-03  0.129E-02  0.102E-02
  -9.059  0.267E-02  0.256E-03  0.137E-02  0.105E-02
  -9.049  0.790E-02  0.101E-02  0.575E-02  0.114E-02
  -9.039  0.680E-02  0.352E-02  0.179E-02  0.150E-02
  -9.029  0.196E-02  0.103E-03  0.120E-02  0.662E-03
  -9.019  0.213E-02  0.107E-03  0.129E-02  0.735E-03
  -9.009  0.231E-02  0.111E-03  0.139E-02  0.815E-03
  -8.999  0.250E-02  0.115E-03  0.148E-02  0.903E-03
  -8.989  0.270E-02  0.119E-03  0.158E-02  0.999E-03
  -8.979  0.290E-02  0.122E-03  0.168E-02  0.110E-02
  -8.969  0.311E-02  0.126E-03  0.177E-02  0.121E-02
  -8.959  0.334E-02  0.130E-03  0.187E-02  0.133E-02
  -8.949  0.357E-02  0.133E-03  0.197E-02  0.146E-02
  -8.939  0.380E-02  0.136E-03  0.208E-02  0.159E-02
  -8.929  0.500E-02  0.206E-03  0.251E-02  0.229E-02
  -8.919  0.534E-02  0.202E-03  0.265E-02  0.249E-02
  -8.909  0.565E-02  0.198E-03  0.277E-02  0.268E-02
  -8.899  0.594E-02  0.194E-03  0.288E-02  0.286E-02
  -8.889  0.621E-02  0.189E-03  0.298E-02  0.303E-02
  -8.879  0.645E-02  0.184E-03  0.307E-02  0.319E-02
  -8.869  0.667E-02  0.180E-03  0.315E-02  0.334E-02
  -8.859  0.687E-02  0.175E-03  0.322E-02  0.348E-02
  -8.849  0.120E-01  0.290E-03  0.448E-02  0.724E-02
  -8.839  0.116E-01  0.269E-03  0.438E-02  0.695E-02
  -8.829  0.112E-01  0.248E-03  0.427E-02  0.665E-02
  -8.819  0.107E-01  0.227E-03  0.414E-02  0.634E-02
  -8.809  0.103E-01  0.207E-03  0.401E-02  0.603E-02
  -8.799  0.978E-02  0.188E-03  0.387E-02  0.572E-02
  -8.789  0.928E-02  0.169E-03  0.372E-02  0.540E-02
  -8.779  0.878E-02  0.151E-03  0.356E-02  0.507E-02
  -8.769  0.825E-02  0.134E-03  0.338E-02  0.474E-02
  -8.759  0.771E-02  0.116E-03  0.320E-02  0.440E-02
  -8.749  0.716E-02  0.998E-04  0.301E-02  0.405E-02
  -8.739  0.659E-02  0.837E-04  0.280E-02  0.370E-02
  -8.729  0.606E-02  0.709E-04  0.261E-02  0.337E-02
  -8.719  0.552E-02  0.594E-04  0.241E-02  0.305E-02
  -8.709  0.498E-02  0.490E-04  0.221E-02  0.272E-02
  -8.699  0.722E-02  0.492E-04  0.344E-02  0.373E-02
  -8.689  0.199E-01  0.831E-04  0.101E-01  0.981E-02
  -8.679  0.436E-01  0.149E-03  0.223E-01  0.212E-01
  -8.669  0.783E-01  0.249E-03  0.402E-01  0.378E-01
  -8.659  0.124E+00  0.380E-03  0.638E-01  0.599E-01
  -8.649  0.178E+00  0.537E-03  0.903E-01  0.872E-01
  -8.639  0.964E-01  0.295E-03  0.654E-01  0.307E-01
  -8.629  0.764E-01  0.236E-03  0.466E-01  0.296E-01
  -8.619  0.621E-01  0.192E-03  0.331E-01  0.288E-01
  -8.609  0.532E-01  0.162E-03  0.248E-01  0.282E-01
  -8.599  0.497E-01  0.145E-03  0.218E-01  0.278E-01
  -8.589  0.504E-01  0.141E-03  0.228E-01  0.275E-01
  -8.579  0.516E-01  0.141E-03  0.241E-01  0.274E-01
  -8.569  0.529E-01  0.141E-03  0.254E-01  0.273E-01
  -8.559  0.543E-01  0.142E-03  0.268E-01  0.273E-01
  -8.549  0.558E-01  0.142E-03  0.281E-01  0.275E-01
  -8.539  0.574E-01  0.143E-03  0.295E-01  0.278E-01
  -8.529  0.592E-01  0.145E-03  0.309E-01  0.281E-01
  -8.519  0.611E-01  0.146E-03  0.323E-01  0.286E-01
  -8.509  0.631E-01  0.149E-03  0.338E-01  0.292E-01
  -8.499  0.653E-01  0.151E-03  0.352E-01  0.299E-01
  -8.489  0.675E-01  0.154E-03  0.367E-01  0.307E-01
  -8.479  0.729E-01  0.161E-03  0.397E-01  0.331E-01
  -8.469  0.806E-01  0.173E-03  0.437E-01  0.367E-01
  -8.459  0.880E-01  0.184E-03  0.476E-01  0.402E-01
  -8.449  0.953E-01  0.196E-03  0.514E-01  0.438E-01
  -8.439  0.102E+00  0.206E-03  0.550E-01  0.473E-01
  -8.429  0.109E+00  0.217E-03  0.584E-01  0.508E-01
  -8.419  0.116E+00  0.228E-03  0.617E-01  0.543E-01
  -8.409  0.123E+00  0.238E-03  0.648E-01  0.578E-01
  -8.399  0.129E+00  0.248E-03  0.677E-01  0.613E-01
  -8.389  0.136E+00  0.257E-03  0.705E-01  0.647E-01
  -8.379  0.137E+00  0.202E-03  0.714E-01  0.659E-01
  -8.369  0.141E+00  0.199E-03  0.725E-01  0.688E-01
  -8.359  0.146E+00  0.230E-03  0.721E-01  0.737E-01
  -8.349  0.139E+00  0.188E-03  0.663E-01  0.722E-01
  -8.339  0.146E+00  0.175E-03  0.670E-01  0.791E-01
  -8.329  0.150E+00  0.162E-03  0.653E-01  0.851E-01
  -8.319  0.151E+00  0.149E-03  0.611E-01  0.901E-01
  -8.309  0.149E+00  0.135E-03  0.546E-01  0.943E-01
  -8.299  0.144E+00  0.123E-03  0.513E-01  0.924E-01
  -8.289  0.217E+00  0.165E-03  0.914E-01  0.125E+00
  -8.279  0.403E+00  0.344E-03  0.188E+00  0.214E+00
  -8.269  0.163E+00  0.118E-03  0.747E-01  0.879E-01
  -8.259  0.167E+00  0.113E-03  0.801E-01  0.864E-01
  -8.249  0.170E+00  0.110E-03  0.842E-01  0.855E-01
  -8.239  0.172E+00  0.106E-03  0.865E-01  0.851E-01
  -8.229  0.172E+00  0.103E-03  0.870E-01  0.853E-01
  -8.219  0.172E+00  0.100E-03  0.858E-01  0.860E-01
  -8.209  0.188E+00  0.103E-03  0.918E-01  0.964E-01
  -8.199  0.205E+00  0.106E-03  0.973E-01  0.108E+00
  -8.189  0.222E+00  0.108E-03  0.102E+00  0.119E+00
  -8.179  0.239E+00  0.110E-03  0.107E+00  0.132E+00
  -8.169  0.172E+00  0.913E-04  0.724E-01  0.100E+00
  -8.159  0.178E+00  0.927E-04  0.753E-01  0.102E+00
  -8.149  0.182E+00  0.942E-04  0.780E-01  0.104E+00
  -8.139  0.185E+00  0.956E-04  0.805E-01  0.105E+00
  -8.129  0.188E+00  0.970E-04  0.829E-01  0.105E+00
  -8.119  0.190E+00  0.984E-04  0.850E-01  0.105E+00
  -8.109  0.191E+00  0.999E-04  0.869E-01  0.104E+00
  -8.099  0.192E+00  0.101E-03  0.887E-01  0.103E+00
  -8.089  0.191E+00  0.103E-03  0.902E-01  0.101E+00
  -8.079  0.201E+00  0.106E-03  0.963E-01  0.104E+00
  -8.069  0.209E+00  0.110E-03  0.102E+00  0.107E+00
  -8.059  0.216E+00  0.116E-03  0.107E+00  0.109E+00
  -8.049  0.219E+00  0.122E-03  0.111E+00  0.108E+00
  -8.039  0.219E+00  0.129E-03  0.113E+00  0.106E+00
  -8.029  0.216E+00  0.138E-03  0.115E+00  0.101E+00
  -8.019  0.210E+00  0.148E-03  0.115E+00  0.942E-01
  -8.009  0.200E+00  0.156E-03  0.115E+00  0.851E-01
  -7.999  0.186E+00  0.138E-03  0.111E+00  0.745E-01
  -7.989  0.167E+00  0.121E-03  0.103E+00  0.639E-01
  -7.979  0.280E+00  0.266E-03  0.155E+00  0.125E+00
  -7.969  0.225E+00  0.202E-03  0.120E+00  0.104E+00
  -7.959  0.167E+00  0.152E-03  0.857E-01  0.808E-01
  -7.949  0.118E+00  0.116E-03  0.571E-01  0.605E-01
  -7.939  0.838E-01  0.930E-04  0.416E-01  0.421E-01
  -7.929  0.810E-01  0.871E-04  0.405E-01  0.405E-01
  -7.919  0.788E-01  0.815E-04  0.393E-01  0.394E-01
  -7.909  0.763E-01  0.756E-04  0.381E-01  0.382E-01
  -7.899  0.735E-01  0.696E-04  0.366E-01  0.368E-01
  -7.889  0.704E-01  0.633E-04  0.351E-01  0.353E-01
  -7.879  0.670E-01  0.575E-04  0.334E-01  0.336E-01
  -7.869  0.633E-01  0.549E-04  0.315E-01  0.317E-01
  -7.859  0.221E+00  0.102E-03  0.113E+00  0.108E+00
  -7.849  0.199E+00  0.957E-04  0.101E+00  0.973E-01
  -7.839  0.177E+00  0.901E-04  0.906E-01  0.867E-01
  -7.829  0.157E+00  0.852E-04  0.805E-01  0.764E-01
  -7.819  0.138E+00  0.809E-04  0.710E-01  0.667E-01
  -7.809  0.123E+00  0.795E-04  0.640E-01  0.593E-01
  -7.799  0.113E+00  0.808E-04  0.592E-01  0.541E-01
  -7.789  0.105E+00  0.829E-04  0.553E-01  0.496E-01
  -7.779  0.981E-01  0.856E-04  0.522E-01  0.458E-01
  -7.769  0.927E-01  0.891E-04  0.499E-01  0.428E-01
  -7.759  0.889E-01  0.933E-04  0.484E-01  0.404E-01
  -7.749  0.866E-01  0.982E-04  0.478E-01  0.387E-01
  -7.739  0.858E-01  0.104E-03  0.481E-01  0.376E-01
  -7.729  0.856E-01  0.110E-03  0.488E-01  0.367E-01
  -7.719  0.855E-01  0.117E-03  0.496E-01  0.358E-01
  -7.709  0.854E-01  0.124E-03  0.505E-01  0.348E-01
  -7.699  0.853E-01  0.131E-03  0.515E-01  0.338E-01
  -7.689  0.854E-01  0.139E-03  0.525E-01  0.327E-01
  -7.679  0.855E-01  0.146E-03  0.537E-01  0.316E-01
  -7.669  0.856E-01  0.155E-03  0.550E-01  0.305E-01
  -7.659  0.858E-01  0.163E-03  0.564E-01  0.293E-01
  -7.649  0.858E-01  0.186E-03  0.574E-01  0.282E-01
  -7.639  0.903E-01  0.244E-03  0.579E-01  0.321E-01
  -7.629  0.103E+00  0.317E-03  0.593E-01  0.437E-01
  -7.619  0.149E+00  0.467E-03  0.662E-01  0.824E-01
  -7.609  0.231E+00  0.635E-03  0.758E-01  0.154E+00
  -7.599  0.335E+00  0.800E-03  0.792E-01  0.255E+00
  -7.589  0.773E-01  0.262E-03  0.388E-01  0.382E-01
  -7.579  0.784E-01  0.301E-03  0.391E-01  0.390E-01
  -7.569  0.796E-01  0.339E-03  0.395E-01  0.398E-01
  -7.559  0.810E-01  0.375E-03  0.399E-01  0.407E-01
  -7.549  0.824E-01  0.409E-03  0.404E-01  0.415E-01
  -7.539  0.839E-01  0.441E-03  0.410E-01  0.424E-01
  -7.529  0.728E-01  0.437E-03  0.354E-01  0.370E-01
  -7.519  0.745E-01  0.466E-03  0.360E-01  0.380E-01
  -7.509  0.763E-01  0.492E-03  0.368E-01  0.390E-01
  -7.499  0.783E-01  0.517E-03  0.376E-01  0.401E-01
  -7.489  0.803E-01  0.539E-03  0.386E-01  0.412E-01
  -7.479  0.825E-01  0.560E-03  0.396E-01  0.424E-01
  -7.469  0.848E-01  0.579E-03  0.406E-01  0.435E-01
  -7.459  0.872E-01  0.596E-03  0.418E-01  0.448E-01
  -7.449  0.897E-01  0.612E-03  0.430E-01  0.460E-01
  -7.439  0.923E-01  0.625E-03  0.444E-01  0.473E-01
  -7.429  0.951E-01  0.637E-03  0.458E-01  0.487E-01
  -7.419  0.459E+00  0.226E-02  0.228E+00  0.229E+00
  -7.409  0.361E+00  0.166E-02  0.181E+00  0.178E+00
  -7.399  0.299E+00  0.129E-02  0.152E+00  0.146E+00
  -7.389  0.265E+00  0.109E-02  0.136E+00  0.129E+00
  -7.379  0.221E+00  0.912E-03  0.114E+00  0.106E+00
  -7.369  0.165E+00  0.737E-03  0.866E-01  0.775E-01
  -7.359  0.954E-01  0.568E-03  0.519E-01  0.430E-01
  -7.349  0.662E-01  0.513E-03  0.319E-01  0.338E-01
  -7.339  0.601E-01  0.505E-03  0.281E-01  0.315E-01
  -7.329  0.560E-01  0.503E-03  0.258E-01  0.297E-01
  -7.319  0.527E-01  0.504E-03  0.239E-01  0.282E-01
  -7.309  0.501E-01  0.507E-03  0.224E-01  0.272E-01
  -7.299  0.483E-01  0.514E-03  0.213E-01  0.265E-01
  -7.289  0.474E-01  0.524E-03  0.207E-01  0.262E-01
  -7.279  0.474E-01  0.541E-03  0.206E-01  0.263E-01
  -7.269  0.485E-01  0.568E-03  0.210E-01  0.269E-01
  -7.259  0.497E-01  0.592E-03  0.218E-01  0.273E-01
  -7.249  0.509E-01  0.618E-03  0.225E-01  0.278E-01
  -7.239  0.578E-01  0.695E-03  0.266E-01  0.305E-01
  -7.229  0.582E-01  0.728E-03  0.272E-01  0.303E-01
  -7.219  0.587E-01  0.762E-03  0.277E-01  0.302E-01
  -7.209  0.593E-01  0.796E-03  0.283E-01  0.301E-01
  -7.199  0.600E-01  0.829E-03  0.291E-01  0.301E-01
  -7.189  0.609E-01  0.863E-03  0.299E-01  0.302E-01
  -7.179  0.620E-01  0.896E-03  0.308E-01  0.304E-01
  -7.169  0.633E-01  0.929E-03  0.317E-01  0.306E-01
  -7.159  0.647E-01  0.961E-03  0.328E-01  0.309E-01
  -7.149  0.663E-01  0.994E-03  0.340E-01  0.313E-01
  -7.139  0.680E-01  0.103E-02  0.353E-01  0.317E-01
  -7.129  0.699E-01  0.106E-02  0.366E-01  0.322E-01
  -7.119  0.720E-01  0.109E-02  0.381E-01  0.328E-01
  -7.109  0.742E-01  0.112E-02  0.397E-01  0.334E-01
  -7.099  0.766E-01  0.115E-02  0.413E-01  0.341E-01
  -7.089  0.792E-01  0.119E-02  0.431E-01  0.349E-01
  -7.079  0.819E-01  0.122E-02  0.449E-01  0.358E-01
  -7.069  0.848E-01  0.125E-02  0.468E-01  0.367E-01
  -7.059  0.879E-01  0.128E-02  0.488E-01  0.378E-01
  -7.049  0.911E-01  0.131E-02  0.510E-01  0.388E-01
  -7.039  0.945E-01  0.134E-02  0.532E-01  0.400E-01
  -7.029  0.981E-01  0.137E-02  0.555E-01  0.412E-01
  -7.019  0.105E+00  0.150E-02  0.594E-01  0.442E-01
  -7.009  0.183E+00  0.378E-02  0.747E-01  0.105E+00
  -6.999  0.112E+00  0.146E-02  0.624E-01  0.478E-01
  -6.989  0.190E+00  0.202E-02  0.112E+00  0.758E-01
  -6.979  0.130E+00  0.194E-02  0.679E-01  0.601E-01
  -6.969  0.906E-01  0.165E-02  0.396E-01  0.493E-01
  -6.959  0.887E-01  0.163E-02  0.379E-01  0.492E-01
  -6.949  0.840E-01  0.155E-02  0.353E-01  0.471E-01
  -6.939  0.767E-01  0.141E-02  0.321E-01  0.432E-01
  -6.929  0.666E-01  0.122E-02  0.281E-01  0.372E-01
  -6.919  0.537E-01  0.964E-03  0.233E-01  0.294E-01
  -6.909  0.402E-01  0.708E-03  0.191E-01  0.205E-01
  -6.899  0.290E-01  0.589E-03  0.148E-01  0.135E-01
  -6.889  0.265E-01  0.642E-03  0.133E-01  0.126E-01
  -6.879  0.270E-01  0.647E-03  0.134E-01  0.129E-01
  -6.869  0.275E-01  0.652E-03  0.136E-01  0.133E-01
  -6.859  0.280E-01  0.658E-03  0.138E-01  0.135E-01
  -6.849  0.176E+01  0.379E-01  0.869E+00  0.850E+00
  -6.839  0.533E-01  0.134E-02  0.261E-01  0.259E-01
  -6.829  0.461E-01  0.123E-02  0.227E-01  0.222E-01
  -6.819  0.402E-01  0.102E-02  0.203E-01  0.189E-01
  -6.809  0.313E-01  0.698E-03  0.155E-01  0.151E-01
  -6.799  0.255E-01  0.581E-03  0.127E-01  0.123E-01
  -6.789  0.205E-01  0.485E-03  0.102E-01  0.981E-02
  -6.779  0.163E-01  0.409E-03  0.817E-02  0.769E-02
  -6.769  0.128E-01  0.353E-03  0.649E-02  0.593E-02
  -6.759  0.100E-01  0.317E-03  0.520E-02  0.452E-02
  -6.749  0.807E-02  0.301E-03  0.429E-02  0.347E-02
  -6.739  0.685E-02  0.306E-03  0.377E-02  0.278E-02
  -6.729  0.640E-02  0.331E-03  0.362E-02  0.244E-02
  -6.719  0.672E-02  0.376E-03  0.386E-02  0.249E-02
  -6.709  0.744E-02  0.432E-03  0.428E-02  0.272E-02
  -6.699  0.964E-02  0.534E-03  0.573E-02  0.338E-02
  -6.689  0.137E-01  0.710E-03  0.824E-02  0.473E-02
  -6.679  0.200E-01  0.977E-03  0.122E-01  0.684E-02
  -6.669  0.322E-01  0.144E-02  0.201E-01  0.107E-01
  -6.659  0.552E-01  0.225E-02  0.341E-01  0.188E-01
  -6.649  0.875E-01  0.346E-02  0.519E-01  0.321E-01
  -6.639  0.129E+00  0.507E-02  0.733E-01  0.506E-01
  -6.629  0.180E+00  0.708E-02  0.986E-01  0.743E-01
  -6.619  0.240E+00  0.949E-02  0.128E+00  0.103E+00
  -6.609  0.115E+00  0.481E-02  0.482E-01  0.622E-01
  -6.599  0.101E+00  0.433E-02  0.440E-01  0.528E-01
  -6.589  0.898E-01  0.395E-02  0.407E-01  0.452E-01
  -6.579  0.812E-01  0.369E-02  0.382E-01  0.393E-01
  -6.569  0.753E-01  0.353E-02  0.366E-01  0.352E-01
  -6.559  0.721E-01  0.349E-02  0.358E-01  0.328E-01
  -6.549  0.717E-01  0.355E-02  0.359E-01  0.322E-01
  -6.539  0.747E-01  0.383E-02  0.371E-01  0.337E-01
  -6.529  0.873E-01  0.445E-02  0.414E-01  0.414E-01
  -6.519  0.110E+00  0.538E-02  0.491E-01  0.559E-01
  -6.509  0.661E-01  0.381E-02  0.321E-01  0.302E-01
  -6.499  0.659E-01  0.395E-02  0.319E-01  0.300E-01
  -6.489  0.657E-01  0.410E-02  0.317E-01  0.298E-01
  -6.479  0.654E-01  0.424E-02  0.315E-01  0.297E-01
  -6.469  0.651E-01  0.438E-02  0.312E-01  0.295E-01
  -6.459  0.648E-01  0.452E-02  0.309E-01  0.293E-01
  -6.449  0.645E-01  0.467E-02  0.306E-01  0.292E-01
  -6.439  0.642E-01  0.481E-02  0.303E-01  0.290E-01
  -6.429  0.638E-01  0.496E-02  0.299E-01  0.289E-01
  -6.419  0.634E-01  0.512E-02  0.295E-01  0.288E-01
  -6.409  0.630E-01  0.527E-02  0.291E-01  0.286E-01
  -6.399  0.626E-01  0.543E-02  0.286E-01  0.285E-01
  -6.389  0.621E-01  0.559E-02  0.282E-01  0.284E-01
  -6.379  0.663E-01  0.608E-02  0.293E-01  0.309E-01
  -6.369  0.771E-01  0.705E-02  0.329E-01  0.371E-01
  -6.359  0.855E-01  0.792E-02  0.358E-01  0.418E-01
  -6.349  0.917E-01  0.868E-02  0.378E-01  0.452E-01
  -6.339  0.955E-01  0.934E-02  0.391E-01  0.471E-01
  -6.329  0.971E-01  0.989E-02  0.395E-01  0.477E-01
  -6.319  0.119E+00  0.126E-01  0.482E-01  0.577E-01
  -6.309  0.145E+00  0.150E-01  0.585E-01  0.712E-01
  -6.299  0.239E-01  0.481E-02  0.959E-02  0.955E-02
  -6.289  0.247E-01  0.514E-02  0.983E-02  0.972E-02
  -6.279  0.261E-01  0.554E-02  0.103E-01  0.103E-01
  -6.269  0.277E-01  0.597E-02  0.109E-01  0.108E-01
  -6.259  0.295E-01  0.645E-02  0.116E-01  0.114E-01
  -6.249  0.315E-01  0.697E-02  0.125E-01  0.120E-01
  -6.239  0.314E-01  0.776E-02  0.118E-01  0.118E-01
  -6.229  0.336E-01  0.872E-02  0.125E-01  0.124E-01
  -6.219  0.358E-01  0.977E-02  0.132E-01  0.128E-01
  -6.209  0.380E-01  0.109E-01  0.138E-01  0.133E-01
  -6.199  0.403E-01  0.121E-01  0.145E-01  0.138E-01
  -6.189  0.458E-01  0.137E-01  0.167E-01  0.153E-01
  -6.179  0.474E-01  0.151E-01  0.168E-01  0.155E-01
  -6.169  0.491E-01  0.165E-01  0.169E-01  0.157E-01
  -6.159  0.516E-01  0.187E-01  0.170E-01  0.159E-01
  -6.149  0.532E-01  0.202E-01  0.170E-01  0.160E-01
  -6.139  0.551E-01  0.217E-01  0.172E-01  0.162E-01
  -6.129  0.575E-01  0.238E-01  0.174E-01  0.163E-01
  -6.119  0.605E-01  0.265E-01  0.176E-01  0.165E-01
  -6.109  0.640E-01  0.297E-01  0.177E-01  0.165E-01
  -6.099  0.671E-01  0.328E-01  0.177E-01  0.166E-01
  -6.089  0.714E-01  0.371E-01  0.177E-01  0.166E-01
  -6.079  0.744E-01  0.402E-01  0.176E-01  0.166E-01
  -6.069  0.765E-01  0.425E-01  0.175E-01  0.165E-01
  -6.059  0.796E-01  0.458E-01  0.174E-01  0.165E-01
  -6.049  0.872E-01  0.506E-01  0.184E-01  0.182E-01
  -6.039  0.976E-01  0.545E-01  0.208E-01  0.222E-01
  -6.029  0.104E+00  0.566E-01  0.229E-01  0.243E-01
  -6.019  0.108E+00  0.582E-01  0.247E-01  0.250E-01
  -6.009  0.112E+00  0.598E-01  0.262E-01  0.257E-01
  -5.999  0.115E+00  0.613E-01  0.275E-01  0.262E-01
  -5.989  0.118E+00  0.629E-01  0.286E-01  0.265E-01
  -5.979  0.116E+00  0.602E-01  0.294E-01  0.267E-01
  -5.969  0.108E+00  0.513E-01  0.300E-01  0.268E-01
  -5.959  0.101E+00  0.437E-01  0.304E-01  0.268E-01
  -5.949  0.953E-01  0.379E-01  0.306E-01  0.268E-01
  -5.939  0.908E-01  0.338E-01  0.305E-01  0.265E-01
  -5.929  0.870E-01  0.309E-01  0.301E-01  0.260E-01
  -5.919  0.848E-01  0.299E-01  0.295E-01  0.253E-01
  -5.909  0.308E+00  0.176E+00  0.669E-01  0.651E-01
  -5.899  0.686E-01  0.271E-01  0.224E-01  0.192E-01
  -5.889  0.663E-01  0.275E-01  0.206E-01  0.182E-01
  -5.879  0.638E-01  0.280E-01  0.187E-01  0.171E-01
  -5.869  0.597E-01  0.275E-01  0.166E-01  0.156E-01
  -5.859  0.553E-01  0.256E-01  0.154E-01  0.143E-01
  -5.849  0.506E-01  0.231E-01  0.144E-01  0.131E-01
  -5.839  0.459E-01  0.208E-01  0.133E-01  0.118E-01
  -5.829  0.413E-01  0.185E-01  0.123E-01  0.105E-01
  -5.819  0.369E-01  0.163E-01  0.113E-01  0.932E-02
  -5.809  0.328E-01  0.143E-01  0.103E-01  0.818E-02
  -5.799  0.289E-01  0.124E-01  0.937E-02  0.710E-02
  -5.789  0.251E-01  0.106E-01  0.841E-02  0.609E-02
  -5.779  0.215E-01  0.891E-02  0.746E-02  0.515E-02
  -5.769  0.181E-01  0.731E-02  0.651E-02  0.427E-02
  -5.759  0.148E-01  0.581E-02  0.556E-02  0.346E-02
  -5.749  0.117E-01  0.442E-02  0.462E-02  0.271E-02
  -5.739  0.882E-02  0.312E-02  0.367E-02  0.203E-02
  -5.729  0.743E-02  0.255E-02  0.318E-02  0.170E-02
  -5.719  0.618E-02  0.210E-02  0.270E-02  0.138E-02
  -5.709  0.518E-02  0.177E-02  0.232E-02  0.109E-02
  -5.699  0.441E-02  0.152E-02  0.205E-02  0.843E-03
  -5.689  0.436E-02  0.146E-02  0.205E-02  0.842E-03
  -5.679  0.423E-02  0.138E-02  0.202E-02  0.833E-03
  -5.669  0.405E-02  0.129E-02  0.195E-02  0.814E-03
  -5.659  0.384E-02  0.119E-02  0.186E-02  0.791E-03
  -5.649  0.362E-02  0.109E-02  0.177E-02  0.766E-03
  -5.639  0.341E-02  0.992E-03  0.167E-02  0.742E-03
  -5.629  0.321E-02  0.907E-03  0.158E-02  0.720E-03
  -5.619  0.303E-02  0.831E-03  0.150E-02  0.700E-03
  -5.609  0.285E-02  0.762E-03  0.141E-02  0.681E-03
  -5.599  0.269E-02  0.702E-03  0.133E-02  0.663E-03
  -5.589  0.254E-02  0.649E-03  0.124E-02  0.647E-03
  -5.579  0.240E-02  0.605E-03  0.116E-02  0.633E-03
  -5.569  0.208E-02  0.518E-03  0.997E-03  0.569E-03
  -5.559  0.201E-02  0.487E-03  0.965E-03  0.559E-03
  -5.549  0.194E-02  0.457E-03  0.932E-03  0.549E-03
  -5.539  0.187E-02  0.428E-03  0.900E-03  0.540E-03
  -5.529  0.180E-02  0.400E-03  0.868E-03  0.531E-03
  -5.519  0.173E-02  0.373E-03  0.836E-03  0.522E-03
  -5.509  0.167E-02  0.347E-03  0.805E-03  0.514E-03
  -5.499  0.160E-02  0.322E-03  0.773E-03  0.506E-03
  -5.489  0.154E-02  0.297E-03  0.742E-03  0.498E-03
  -5.479  0.148E-02  0.274E-03  0.711E-03  0.490E-03
  -5.469  0.141E-02  0.252E-03  0.680E-03  0.483E-03
  -5.459  0.136E-02  0.230E-03  0.649E-03  0.476E-03
  -5.449  0.130E-02  0.210E-03  0.618E-03  0.469E-03
  -5.439  0.124E-02  0.190E-03  0.588E-03  0.463E-03
  -5.429  0.119E-02  0.172E-03  0.558E-03  0.457E-03
  -5.419  0.113E-02  0.154E-03  0.528E-03  0.451E-03
  -5.409  0.108E-02  0.138E-03  0.498E-03  0.445E-03
  -5.399  0.273E-02  0.421E-03  0.857E-03  0.145E-02
  -5.389  0.133E-02  0.160E-03  0.528E-03  0.639E-03
  -5.379  0.702E-03  0.668E-04  0.405E-03  0.230E-03
  -5.369  0.834E-03  0.687E-04  0.487E-03  0.278E-03
  -5.359  0.148E-02  0.755E-04  0.835E-03  0.570E-03
  -5.349  0.261E-02  0.837E-04  0.141E-02  0.112E-02
  -5.339  0.423E-02  0.932E-04  0.220E-02  0.193E-02
  -5.329  0.633E-02  0.104E-03  0.323E-02  0.300E-02
  -5.319  0.891E-02  0.116E-03  0.447E-02  0.432E-02
  -5.309  0.120E-01  0.130E-03  0.594E-02  0.591E-02
  -5.299  0.155E-01  0.145E-03  0.763E-02  0.775E-02
  -5.289  0.196E-01  0.161E-03  0.955E-02  0.985E-02
  -5.279  0.241E-01  0.179E-03  0.117E-01  0.122E-01
  -5.269  0.555E-01  0.180E-02  0.218E-01  0.319E-01
  -5.259  0.133E+00  0.744E-02  0.460E-01  0.796E-01
  -5.249  0.172E+00  0.127E-01  0.595E-01  0.998E-01
  -5.239  0.187E+00  0.168E-01  0.694E-01  0.101E+00
  -5.229  0.208E+00  0.158E-01  0.853E-01  0.107E+00
  -5.219  0.218E+00  0.742E-02  0.983E-01  0.113E+00
  -5.209  0.156E+00  0.838E-02  0.687E-01  0.793E-01
  -5.199  0.127E+00  0.920E-02  0.551E-01  0.628E-01
  -5.189  0.132E+00  0.108E-01  0.572E-01  0.642E-01
  -5.179  0.155E+00  0.127E-01  0.645E-01  0.780E-01
  -5.169  0.206E+00  0.160E-01  0.759E-01  0.114E+00
  -5.159  0.161E+00  0.173E-01  0.633E-01  0.800E-01
  -5.149  0.119E+00  0.179E-01  0.522E-01  0.493E-01
  -5.139  0.121E+00  0.187E-01  0.542E-01  0.483E-01
  -5.129  0.117E+00  0.186E-01  0.523E-01  0.457E-01
  -5.119  0.111E+00  0.183E-01  0.500E-01  0.432E-01
  -5.109  0.107E+00  0.177E-01  0.478E-01  0.412E-01
  -5.099  0.102E+00  0.171E-01  0.459E-01  0.395E-01
  -5.089  0.104E+00  0.180E-01  0.461E-01  0.394E-01
  -5.079  0.105E+00  0.190E-01  0.458E-01  0.402E-01
  -5.069  0.103E+00  0.189E-01  0.447E-01  0.394E-01
  -5.059  0.101E+00  0.186E-01  0.435E-01  0.385E-01
  -5.049  0.982E-01  0.182E-01  0.424E-01  0.376E-01
  -5.039  0.956E-01  0.175E-01  0.413E-01  0.368E-01
  -5.029  0.926E-01  0.166E-01  0.401E-01  0.358E-01
  -5.019  0.891E-01  0.155E-01  0.389E-01  0.347E-01
  -5.009  0.889E-01  0.145E-01  0.392E-01  0.351E-01
  -4.999  0.968E-01  0.142E-01  0.432E-01  0.394E-01
  -4.989  0.113E+00  0.145E-01  0.508E-01  0.474E-01
  -4.979  0.137E+00  0.156E-01  0.621E-01  0.597E-01
  -4.969  0.172E+00  0.182E-01  0.773E-01  0.763E-01
  -4.959  0.216E+00  0.226E-01  0.962E-01  0.970E-01
  -4.949  0.386E-01  0.118E-01  0.159E-01  0.110E-01
  -4.939  0.848E-01  0.179E-01  0.509E-01  0.160E-01
  -4.929  0.427E-01  0.139E-01  0.165E-01  0.122E-01
  -4.919  0.258E-01  0.828E-02  0.996E-02  0.753E-02
  -4.909  0.133E-01  0.406E-02  0.508E-02  0.418E-02
  -4.899  0.489E-02  0.131E-02  0.181E-02  0.177E-02
  -4.889  0.755E-01  0.333E-01  0.127E-01  0.295E-01
  -4.879  0.105E+00  0.423E-01  0.157E-01  0.467E-01
  -4.869  0.433E-01  0.178E-01  0.693E-02  0.186E-01
  -4.859  0.241E-01  0.110E-01  0.578E-02  0.732E-02
  -4.849  0.690E-01  0.142E-01  0.362E-01  0.186E-01
  -4.839  0.107E+00  0.168E-01  0.605E-01  0.297E-01
  -4.829  0.123E+00  0.181E-01  0.694E-01  0.355E-01
  -4.819  0.117E+00  0.183E-01  0.629E-01  0.358E-01
  -4.809  0.902E-01  0.176E-01  0.416E-01  0.310E-01
  -4.799  0.515E-01  0.181E-01  0.105E-01  0.229E-01
  -4.789  0.635E-01  0.234E-01  0.130E-01  0.270E-01
  -4.779  0.823E-01  0.319E-01  0.172E-01  0.332E-01
  -4.769  0.106E+00  0.431E-01  0.222E-01  0.406E-01
  -4.759  0.437E-01  0.122E-01  0.130E-01  0.186E-01
  -4.749  0.439E-01  0.115E-01  0.147E-01  0.177E-01
  -4.739  0.447E-01  0.112E-01  0.165E-01  0.169E-01
  -4.729  0.460E-01  0.112E-01  0.186E-01  0.162E-01
  -4.719  0.475E-01  0.114E-01  0.207E-01  0.154E-01
  -4.709  0.492E-01  0.117E-01  0.230E-01  0.145E-01
  -4.699  0.512E-01  0.122E-01  0.254E-01  0.136E-01
  -4.689  0.595E-01  0.149E-01  0.277E-01  0.169E-01
  -4.679  0.819E-01  0.226E-01  0.287E-01  0.306E-01
  -4.669  0.106E+00  0.303E-01  0.309E-01  0.449E-01
  -4.659  0.111E+00  0.322E-01  0.291E-01  0.494E-01
  -4.649  0.966E-01  0.288E-01  0.233E-01  0.445E-01
  -4.639  0.639E-01  0.201E-01  0.138E-01  0.301E-01
  -4.629  0.208E-01  0.780E-02  0.494E-02  0.809E-02
  -4.619  0.384E-01  0.266E-01  0.536E-02  0.641E-02
  -4.609  0.819E-01  0.503E-01  0.137E-01  0.179E-01
  -4.599  0.104E+00  0.509E-01  0.253E-01  0.278E-01
  -4.589  0.363E-01  0.180E-01  0.991E-02  0.837E-02
  -4.579  0.383E-01  0.191E-01  0.103E-01  0.887E-02
  -4.569  0.437E-01  0.202E-01  0.123E-01  0.111E-01
  -4.559  0.926E-01  0.215E-01  0.358E-01  0.353E-01
  -4.549  0.143E+00  0.233E-01  0.595E-01  0.599E-01
  -4.539  0.194E+00  0.256E-01  0.835E-01  0.848E-01
  -4.529  0.246E+00  0.285E-01  0.108E+00  0.110E+00
  -4.519  0.287E+00  0.252E-01  0.127E+00  0.135E+00
  -4.509  0.367E+00  0.275E-01  0.163E+00  0.177E+00
  -4.499  0.502E+00  0.307E-01  0.228E+00  0.244E+00
  -4.489  0.684E+00  0.308E-01  0.319E+00  0.334E+00
  -4.479  0.126E+01  0.328E-01  0.607E+00  0.618E+00
  -4.469  0.269E+00  0.305E-01  0.117E+00  0.122E+00
  -4.459  0.813E-01  0.336E-01  0.214E-01  0.263E-01
  -4.449  0.946E-01  0.391E-01  0.251E-01  0.304E-01
  -4.439  0.161E+00  0.677E-01  0.423E-01  0.510E-01
  -4.429  0.134E+00  0.564E-01  0.348E-01  0.431E-01
  -4.419  0.115E+00  0.469E-01  0.303E-01  0.380E-01
  -4.409  0.104E+00  0.392E-01  0.287E-01  0.358E-01
  -4.399  0.998E-01  0.334E-01  0.300E-01  0.364E-01
  -4.389  0.109E+00  0.330E-01  0.343E-01  0.414E-01
  -4.379  0.122E+00  0.340E-01  0.396E-01  0.479E-01
  -4.369  0.134E+00  0.337E-01  0.455E-01  0.545E-01
  -4.359  0.157E+00  0.362E-01  0.554E-01  0.656E-01
  -4.349  0.269E+00  0.368E-01  0.111E+00  0.121E+00
  -4.339  0.418E+00  0.358E-01  0.186E+00  0.196E+00
  -4.329  0.495E+00  0.345E-01  0.226E+00  0.235E+00
  -4.319  0.498E+00  0.358E-01  0.227E+00  0.235E+00
  -4.309  0.510E+00  0.386E-01  0.231E+00  0.240E+00
  -4.299  0.546E+00  0.406E-01  0.248E+00  0.257E+00
  -4.289  0.578E+00  0.377E-01  0.266E+00  0.274E+00
  -4.279  0.601E+00  0.337E-01  0.281E+00  0.287E+00
  -4.269  0.616E+00  0.288E-01  0.292E+00  0.296E+00
  -4.259  0.582E+00  0.230E-01  0.280E+00  0.280E+00
  -4.249  0.216E+00  0.185E-01  0.955E-01  0.102E+00
  -4.239  0.214E+00  0.166E-01  0.958E-01  0.102E+00
  -4.229  0.262E+00  0.384E-01  0.102E+00  0.122E+00
  -4.219  0.259E+00  0.381E-01  0.102E+00  0.118E+00
  -4.209  0.248E+00  0.372E-01  0.988E-01  0.112E+00
  -4.199  0.232E+00  0.358E-01  0.923E-01  0.104E+00
  -4.189  0.221E+00  0.365E-01  0.870E-01  0.971E-01
  -4.179  0.214E+00  0.395E-01  0.832E-01  0.917E-01
  -4.169  0.214E+00  0.451E-01  0.808E-01  0.877E-01
  -4.159  0.218E+00  0.530E-01  0.799E-01  0.851E-01
  -4.149  0.228E+00  0.634E-01  0.804E-01  0.839E-01
  -4.139  0.240E+00  0.747E-01  0.814E-01  0.835E-01
  -4.129  0.255E+00  0.882E-01  0.830E-01  0.838E-01
  -4.119  0.277E+00  0.107E+00  0.855E-01  0.851E-01
  -4.109  0.283E+00  0.113E+00  0.865E-01  0.829E-01
  -4.099  0.214E+00  0.522E-01  0.818E-01  0.803E-01
  -4.089  0.226E+00  0.548E-01  0.863E-01  0.853E-01
  -4.079  0.239E+00  0.578E-01  0.907E-01  0.903E-01
  -4.069  0.254E+00  0.615E-01  0.963E-01  0.967E-01
  -4.059  0.272E+00  0.658E-01  0.102E+00  0.104E+00
  -4.049  0.289E+00  0.707E-01  0.108E+00  0.110E+00
  -4.039  0.307E+00  0.761E-01  0.114E+00  0.117E+00
  -4.029  0.325E+00  0.820E-01  0.119E+00  0.124E+00
  -4.019  0.343E+00  0.885E-01  0.125E+00  0.130E+00
  -4.009  0.362E+00  0.954E-01  0.130E+00  0.136E+00
  -3.999  0.380E+00  0.103E+00  0.135E+00  0.142E+00
  -3.989  0.533E+00  0.111E+00  0.208E+00  0.214E+00
  -3.979  0.451E+00  0.891E-01  0.178E+00  0.184E+00
  -3.969  0.378E+00  0.698E-01  0.151E+00  0.157E+00
  -3.959  0.374E+00  0.716E-01  0.158E+00  0.145E+00
  -3.949  0.368E+00  0.109E+00  0.136E+00  0.123E+00
  -3.939  0.355E+00  0.132E+00  0.117E+00  0.106E+00
  -3.929  0.239E+00  0.349E-01  0.105E+00  0.991E-01
  -3.919  0.221E+00  0.290E-01  0.958E-01  0.959E-01
  -3.909  0.213E+00  0.261E-01  0.902E-01  0.964E-01
  -3.899  0.215E+00  0.264E-01  0.879E-01  0.101E+00
  -3.889  0.222E+00  0.280E-01  0.873E-01  0.107E+00
  -3.879  0.228E+00  0.292E-01  0.862E-01  0.113E+00
  -3.869  0.233E+00  0.300E-01  0.846E-01  0.119E+00
  -3.859  0.237E+00  0.305E-01  0.824E-01  0.125E+00
  -3.849  0.238E+00  0.298E-01  0.791E-01  0.130E+00
  -3.839  0.223E+00  0.243E-01  0.705E-01  0.129E+00
  -3.829  0.198E+00  0.174E-01  0.579E-01  0.123E+00
  -3.819  0.172E+00  0.114E-01  0.451E-01  0.116E+00
  -3.809  0.746E-01  0.599E-02  0.459E-01  0.227E-01
  -3.799  0.113E+00  0.529E-02  0.853E-01  0.228E-01
  -3.789  0.199E+00  0.567E-02  0.132E+00  0.613E-01
  -3.779  0.287E+00  0.752E-02  0.172E+00  0.108E+00
  -3.769  0.346E+00  0.996E-02  0.190E+00  0.147E+00
  -3.759  0.378E+00  0.130E-01  0.187E+00  0.178E+00
  -3.749  0.384E+00  0.169E-01  0.164E+00  0.202E+00
  -3.739  0.114E+01  0.217E-01  0.484E+00  0.636E+00
  -3.729  0.635E+00  0.924E-02  0.275E+00  0.351E+00
  -3.719  0.238E+00  0.746E-02  0.111E+00  0.120E+00
  -3.709  0.207E+00  0.665E-02  0.101E+00  0.992E-01
  -3.699  0.182E+00  0.600E-02  0.938E-01  0.823E-01
  -3.689  0.175E+00  0.557E-02  0.939E-01  0.758E-01
  -3.679  0.200E+00  0.545E-02  0.107E+00  0.878E-01
  -3.669  0.255E+00  0.558E-02  0.133E+00  0.117E+00
  -3.659  0.332E+00  0.581E-02  0.168E+00  0.158E+00
  -3.649  0.430E+00  0.614E-02  0.213E+00  0.211E+00
  -3.639  0.548E+00  0.655E-02  0.268E+00  0.274E+00
  -3.629  0.167E+00  0.582E-02  0.782E-01  0.831E-01
  -3.619  0.172E+00  0.611E-02  0.790E-01  0.873E-01
  -3.609  0.179E+00  0.671E-02  0.808E-01  0.918E-01
  -3.599  0.187E+00  0.728E-02  0.833E-01  0.963E-01
  -3.589  0.195E+00  0.782E-02  0.865E-01  0.101E+00
  -3.579  0.204E+00  0.833E-02  0.903E-01  0.106E+00
  -3.569  0.214E+00  0.882E-02  0.948E-01  0.111E+00
  -3.559  0.225E+00  0.927E-02  0.100E+00  0.116E+00
  -3.549  0.237E+00  0.970E-02  0.106E+00  0.121E+00
  -3.539  0.258E+00  0.102E-01  0.117E+00  0.131E+00
  -3.529  0.296E+00  0.108E-01  0.136E+00  0.150E+00
  -3.519  0.353E+00  0.118E-01  0.163E+00  0.177E+00
  -3.509  0.430E+00  0.142E-01  0.201E+00  0.214E+00
  -3.499  0.530E+00  0.181E-01  0.250E+00  0.261E+00
  -3.489  0.331E+00  0.203E-01  0.162E+00  0.149E+00
  -3.479  0.359E+00  0.266E-01  0.178E+00  0.154E+00
  -3.469  0.311E+00  0.115E-01  0.150E+00  0.149E+00
  -3.459  0.318E+00  0.114E-01  0.153E+00  0.154E+00
  -3.449  0.324E+00  0.113E-01  0.156E+00  0.158E+00
  -3.439  0.330E+00  0.111E-01  0.158E+00  0.161E+00
  -3.429  0.336E+00  0.110E-01  0.160E+00  0.165E+00
  -3.419  0.341E+00  0.109E-01  0.162E+00  0.168E+00
  -3.409  0.345E+00  0.107E-01  0.164E+00  0.171E+00
  -3.399  0.348E+00  0.105E-01  0.165E+00  0.173E+00
  -3.389  0.352E+00  0.104E-01  0.166E+00  0.175E+00
  -3.379  0.354E+00  0.102E-01  0.167E+00  0.177E+00
  -3.369  0.356E+00  0.100E-01  0.167E+00  0.179E+00
  -3.359  0.360E+00  0.100E-01  0.168E+00  0.182E+00
  -3.349  0.378E+00  0.105E-01  0.173E+00  0.194E+00
  -3.339  0.388E+00  0.110E-01  0.177E+00  0.201E+00
  -3.329  0.401E+00  0.116E-01  0.182E+00  0.208E+00
  -3.319  0.414E+00  0.124E-01  0.187E+00  0.215E+00
  -3.309  0.426E+00  0.132E-01  0.192E+00  0.221E+00
  -3.299  0.437E+00  0.141E-01  0.197E+00  0.226E+00
  -3.289  0.448E+00  0.152E-01  0.203E+00  0.230E+00
  -3.279  0.459E+00  0.164E-01  0.208E+00  0.234E+00
  -3.269  0.469E+00  0.177E-01  0.214E+00  0.237E+00
  -3.259  0.454E+00  0.153E-01  0.204E+00  0.234E+00
  -3.249  0.463E+00  0.160E-01  0.207E+00  0.240E+00
  -3.239  0.466E+00  0.167E-01  0.208E+00  0.241E+00
  -3.229  0.465E+00  0.173E-01  0.210E+00  0.238E+00
  -3.219  0.467E+00  0.181E-01  0.210E+00  0.238E+00
  -3.209  0.470E+00  0.189E-01  0.211E+00  0.241E+00
  -3.199  0.473E+00  0.197E-01  0.211E+00  0.243E+00
  -3.189  0.475E+00  0.206E-01  0.210E+00  0.245E+00
  -3.179  0.478E+00  0.215E-01  0.210E+00  0.247E+00
  -3.169  0.481E+00  0.225E-01  0.209E+00  0.249E+00
  -3.159  0.483E+00  0.235E-01  0.209E+00  0.251E+00
  -3.149  0.485E+00  0.246E-01  0.208E+00  0.253E+00
  -3.139  0.486E+00  0.251E-01  0.208E+00  0.253E+00
  -3.129  0.491E+00  0.259E-01  0.211E+00  0.254E+00
  -3.119  0.499E+00  0.269E-01  0.214E+00  0.257E+00
  -3.109  0.509E+00  0.282E-01  0.219E+00  0.262E+00
  -3.099  0.520E+00  0.295E-01  0.224E+00  0.266E+00
  -3.089  0.532E+00  0.309E-01  0.229E+00  0.271E+00
  -3.079  0.544E+00  0.323E-01  0.235E+00  0.277E+00
  -3.069  0.557E+00  0.337E-01  0.240E+00  0.283E+00
  -3.059  0.553E+00  0.347E-01  0.246E+00  0.272E+00
  -3.049  0.543E+00  0.354E-01  0.252E+00  0.255E+00
  -3.039  0.512E+00  0.350E-01  0.238E+00  0.239E+00
  -3.029  0.670E+00  0.346E-01  0.314E+00  0.322E+00
  -3.019  0.739E+00  0.843E-01  0.310E+00  0.344E+00
  -3.009  0.599E+00  0.255E-01  0.277E+00  0.297E+00
  -2.999  0.587E+00  0.252E-01  0.270E+00  0.291E+00
  -2.989  0.573E+00  0.250E-01  0.263E+00  0.285E+00
  -2.979  0.556E+00  0.247E-01  0.255E+00  0.277E+00
  -2.969  0.538E+00  0.244E-01  0.246E+00  0.267E+00
  -2.959  0.517E+00  0.241E-01  0.236E+00  0.257E+00
  -2.949  0.514E+00  0.309E-01  0.229E+00  0.254E+00
  -2.939  0.508E+00  0.281E-01  0.227E+00  0.253E+00
  -2.929  0.503E+00  0.257E-01  0.226E+00  0.252E+00
  -2.919  0.495E+00  0.238E-01  0.223E+00  0.249E+00
  -2.909  0.671E+00  0.339E-01  0.288E+00  0.349E+00
  -2.899  0.594E+00  0.298E-01  0.259E+00  0.305E+00
  -2.889  0.497E+00  0.245E-01  0.209E+00  0.264E+00
  -2.879  0.427E+00  0.212E-01  0.176E+00  0.230E+00
  -2.869  0.355E+00  0.174E-01  0.148E+00  0.190E+00
  -2.859  0.339E+00  0.154E-01  0.149E+00  0.175E+00
  -2.849  0.403E+00  0.190E-01  0.177E+00  0.207E+00
  -2.839  0.466E+00  0.269E-01  0.203E+00  0.236E+00
  -2.829  0.501E+00  0.385E-01  0.214E+00  0.249E+00
  -2.819  0.513E+00  0.504E-01  0.213E+00  0.249E+00
  -2.809  0.520E+00  0.623E-01  0.211E+00  0.246E+00
  -2.799  0.547E+00  0.757E-01  0.218E+00  0.253E+00
  -2.789  0.109E+01  0.154E+00  0.242E+00  0.690E+00
  -2.779  0.529E+00  0.106E+00  0.218E+00  0.205E+00
  -2.769  0.597E+00  0.129E+00  0.247E+00  0.221E+00
  -2.759  0.662E+00  0.154E+00  0.274E+00  0.235E+00
  -2.749  0.893E+00  0.182E+00  0.348E+00  0.363E+00
  -2.739  0.858E+00  0.211E+00  0.335E+00  0.312E+00
  -2.729  0.833E+00  0.241E+00  0.323E+00  0.268E+00
  -2.719  0.819E+00  0.273E+00  0.314E+00  0.232E+00
  -2.709  0.365E+01  0.247E+01  0.633E+00  0.549E+00
  -2.699  0.150E+01  0.872E+00  0.386E+00  0.240E+00
  -2.689  0.121E+01  0.604E+00  0.392E+00  0.217E+00
  -2.679  0.140E+01  0.711E+00  0.425E+00  0.261E+00
  -2.669  0.162E+01  0.841E+00  0.476E+00  0.307E+00
  -2.659  0.198E+01  0.985E+00  0.564E+00  0.431E+00
  -2.649  0.216E+01  0.111E+01  0.598E+00  0.449E+00
  -2.639  0.293E+01  0.136E+01  0.104E+01  0.530E+00
  -2.629  0.188E+01  0.101E+01  0.462E+00  0.407E+00
  -2.619  0.147E+01  0.809E+00  0.324E+00  0.332E+00
  -2.609  0.648E+00  0.297E+00  0.155E+00  0.197E+00
  -2.599  0.494E+00  0.249E+00  0.110E+00  0.135E+00
  -2.589  0.375E+00  0.225E+00  0.897E-01  0.602E-01
  -2.579  0.328E+00  0.187E+00  0.856E-01  0.547E-01
  -2.569  0.287E+00  0.153E+00  0.826E-01  0.509E-01
  -2.559  0.157E+01  0.215E+00  0.125E+01  0.102E+00
  -2.549  0.129E+00  0.665E-01  0.391E-01  0.238E-01
  -2.539  0.913E+00  0.126E+00  0.345E+00  0.442E+00
  -2.529  0.378E+00  0.155E+00  0.179E+00  0.440E-01
  -2.519  0.350E+00  0.169E+00  0.134E+00  0.475E-01
  -2.509  0.954E+00  0.277E+00  0.382E+00  0.295E+00
  -2.499  0.959E+00  0.307E+00  0.356E+00  0.296E+00
  -2.489  0.953E+00  0.330E+00  0.329E+00  0.293E+00
  -2.479  0.930E+00  0.346E+00  0.298E+00  0.286E+00
  -2.469  0.892E+00  0.355E+00  0.264E+00  0.273E+00
  -2.459  0.837E+00  0.356E+00  0.226E+00  0.256E+00
  -2.449  0.766E+00  0.349E+00  0.184E+00  0.233E+00
  -2.439  0.686E+00  0.338E+00  0.139E+00  0.208E+00
  -2.429  0.697E+00  0.372E+00  0.120E+00  0.204E+00
  -2.419  0.704E+00  0.405E+00  0.100E+00  0.199E+00
  -2.409  0.753E+00  0.468E+00  0.858E-01  0.199E+00
  -2.399  0.748E+00  0.485E+00  0.715E-01  0.191E+00
  -2.389  0.142E+01  0.732E+00  0.379E+00  0.310E+00
  -2.379  0.493E+01  0.742E+00  0.247E+01  0.171E+01
  -2.369  0.823E+00  0.277E+00  0.329E+00  0.217E+00
  -2.359  0.575E+00  0.187E+00  0.249E+00  0.140E+00
  -2.349  0.166E+01  0.987E+00  0.450E+00  0.226E+00
  -2.339  0.995E+00  0.628E+00  0.240E+00  0.128E+00
  -2.329  0.684E+00  0.421E+00  0.153E+00  0.109E+00
  -2.319  0.555E+00  0.298E+00  0.148E+00  0.109E+00
  -2.309  0.542E+00  0.266E+00  0.155E+00  0.120E+00
  -2.299  0.447E+00  0.198E+00  0.140E+00  0.109E+00
  -2.289  0.338E+00  0.136E+00  0.113E+00  0.891E-01
  -2.279  0.316E+00  0.123E+00  0.106E+00  0.874E-01
  -2.269  0.295E+00  0.113E+00  0.952E-01  0.862E-01
  -2.259  0.283E+00  0.110E+00  0.853E-01  0.877E-01
  -2.249  0.305E+00  0.122E+00  0.888E-01  0.938E-01
  -2.239  0.343E+00  0.147E+00  0.962E-01  0.100E+00
  -2.229  0.380E+00  0.171E+00  0.104E+00  0.106E+00
  -2.219  0.416E+00  0.195E+00  0.111E+00  0.110E+00
  -2.209  0.451E+00  0.219E+00  0.119E+00  0.112E+00
  -2.199  0.485E+00  0.243E+00  0.127E+00  0.114E+00
  -2.189  0.517E+00  0.267E+00  0.136E+00  0.114E+00
  -2.179  0.189E+01  0.573E+00  0.798E+00  0.522E+00
  -2.169  0.367E+00  0.131E+00  0.140E+00  0.950E-01
  -2.159  0.563E+00  0.190E+00  0.232E+00  0.141E+00
  -2.149  0.104E+01  0.311E+00  0.430E+00  0.296E+00
  -2.139  0.174E+01  0.395E+00  0.745E+00  0.596E+00
  -2.129  0.215E+01  0.450E+00  0.914E+00  0.785E+00
  -2.119  0.782E+00  0.455E+00  0.151E+00  0.176E+00
  -2.109  0.727E+00  0.463E+00  0.115E+00  0.149E+00
  -2.099  0.129E+01  0.979E+00  0.142E+00  0.164E+00
  -2.089  0.338E+00  0.198E+00  0.785E-01  0.618E-01
  -2.079  0.332E+00  0.196E+00  0.756E-01  0.601E-01
  -2.069  0.329E+00  0.195E+00  0.743E-01  0.601E-01
  -2.059  0.330E+00  0.193E+00  0.746E-01  0.619E-01
  -2.049  0.374E+00  0.201E+00  0.992E-01  0.740E-01
  -2.039  0.381E+00  0.202E+00  0.993E-01  0.795E-01
  -2.029  0.386E+00  0.204E+00  0.987E-01  0.841E-01
  -2.019  0.402E+00  0.215E+00  0.985E-01  0.886E-01
  -2.009  0.405E+00  0.217E+00  0.965E-01  0.910E-01
  -1.999  0.405E+00  0.219E+00  0.939E-01  0.922E-01
  -1.989  0.404E+00  0.221E+00  0.905E-01  0.925E-01
  -1.979  0.401E+00  0.223E+00  0.865E-01  0.917E-01
  -1.969  0.397E+00  0.224E+00  0.830E-01  0.899E-01
  -1.959  0.394E+00  0.226E+00  0.809E-01  0.872E-01
  -1.949  0.388E+00  0.227E+00  0.780E-01  0.833E-01
  -1.939  0.381E+00  0.228E+00  0.744E-01  0.783E-01
  -1.929  0.371E+00  0.229E+00  0.700E-01  0.721E-01
  -1.919  0.359E+00  0.229E+00  0.650E-01  0.647E-01
  -1.909  0.393E+00  0.264E+00  0.686E-01  0.604E-01
  -1.899  0.475E+00  0.326E+00  0.834E-01  0.654E-01
  -1.889  0.601E+00  0.413E+00  0.109E+00  0.798E-01
  -1.879  0.794E+00  0.524E+00  0.154E+00  0.117E+00
  -1.869  0.989E+00  0.550E+00  0.316E+00  0.124E+00
  -1.859  0.122E+01  0.658E+00  0.336E+00  0.222E+00
  -1.849  0.147E+01  0.776E+00  0.360E+00  0.330E+00
  -1.839  0.462E+01  0.215E+01  0.117E+01  0.129E+01
  -1.829  0.861E+00  0.531E+00  0.160E+00  0.170E+00
  -1.819  0.739E+00  0.482E+00  0.123E+00  0.134E+00
  -1.809  0.609E+00  0.410E+00  0.944E-01  0.104E+00
  -1.799  0.488E+00  0.331E+00  0.746E-01  0.821E-01
  -1.789  0.470E+00  0.330E+00  0.666E-01  0.733E-01
  -1.779  0.453E+00  0.328E+00  0.594E-01  0.654E-01
  -1.769  0.436E+00  0.324E+00  0.529E-01  0.585E-01
  -1.759  0.419E+00  0.319E+00  0.471E-01  0.524E-01
  -1.749  0.403E+00  0.313E+00  0.421E-01  0.473E-01
  -1.739  0.387E+00  0.306E+00  0.379E-01  0.431E-01
  -1.729  0.371E+00  0.297E+00  0.343E-01  0.398E-01
  -1.719  0.355E+00  0.286E+00  0.316E-01  0.374E-01
  -1.709  0.340E+00  0.275E+00  0.295E-01  0.359E-01
  -1.699  0.341E+00  0.275E+00  0.298E-01  0.366E-01
  -1.689  0.344E+00  0.276E+00  0.304E-01  0.376E-01
  -1.679  0.347E+00  0.278E+00  0.311E-01  0.387E-01
  -1.669  0.350E+00  0.278E+00  0.318E-01  0.399E-01
  -1.659  0.352E+00  0.278E+00  0.326E-01  0.410E-01
  -1.649  0.353E+00  0.278E+00  0.334E-01  0.423E-01
  -1.639  0.300E+00  0.240E+00  0.258E-01  0.343E-01
  -1.629  0.339E+00  0.226E+00  0.521E-01  0.609E-01
  -1.619  0.599E+00  0.233E+00  0.179E+00  0.188E+00
  -1.609  0.834E+00  0.268E+00  0.279E+00  0.287E+00
  -1.599  0.104E+01  0.332E+00  0.353E+00  0.359E+00
  -1.589  0.129E+01  0.448E+00  0.421E+00  0.423E+00
  -1.579  0.160E+01  0.109E+01  0.249E+00  0.255E+00
  -1.569  0.468E+00  0.227E+00  0.126E+00  0.115E+00
  -1.559  0.415E+00  0.208E+00  0.101E+00  0.105E+00
  -1.549  0.148E+01  0.113E+01  0.112E+00  0.234E+00
  -1.539  0.847E+00  0.603E+00  0.106E+00  0.137E+00
  -1.529  0.784E+00  0.548E+00  0.104E+00  0.132E+00
  -1.519  0.722E+00  0.496E+00  0.101E+00  0.126E+00
  -1.509  0.661E+00  0.445E+00  0.975E-01  0.119E+00
  -1.499  0.600E+00  0.395E+00  0.932E-01  0.112E+00
  -1.489  0.539E+00  0.348E+00  0.882E-01  0.104E+00
  -1.479  0.479E+00  0.302E+00  0.825E-01  0.949E-01
  -1.469  0.420E+00  0.258E+00  0.762E-01  0.856E-01
  -1.459  0.378E+00  0.232E+00  0.696E-01  0.767E-01
  -1.449  0.391E+00  0.249E+00  0.677E-01  0.745E-01
  -1.439  0.502E+00  0.267E+00  0.115E+00  0.120E+00
  -1.429  0.488E+00  0.286E+00  0.988E-01  0.104E+00
  -1.419  0.475E+00  0.305E+00  0.822E-01  0.876E-01
  -1.409  0.462E+00  0.325E+00  0.657E-01  0.718E-01
  -1.399  0.450E+00  0.345E+00  0.492E-01  0.561E-01
  -1.389  0.439E+00  0.366E+00  0.328E-01  0.405E-01
  -1.379  0.428E+00  0.387E+00  0.164E-01  0.252E-01
  -1.369  0.446E+00  0.409E+00  0.144E-01  0.235E-01
  -1.359  0.472E+00  0.431E+00  0.160E-01  0.254E-01
  -1.349  0.498E+00  0.453E+00  0.176E-01  0.273E-01
  -1.339  0.525E+00  0.476E+00  0.193E-01  0.295E-01
  -1.329  0.553E+00  0.500E+00  0.211E-01  0.318E-01
  -1.319  0.316E+00  0.288E+00  0.109E-01  0.168E-01
  -1.309  0.313E+00  0.286E+00  0.111E-01  0.165E-01
  -1.299  0.311E+00  0.284E+00  0.112E-01  0.162E-01
  -1.289  0.309E+00  0.282E+00  0.114E-01  0.159E-01
  -1.279  0.308E+00  0.281E+00  0.115E-01  0.155E-01
  -1.269  0.307E+00  0.280E+00  0.116E-01  0.151E-01
  -1.259  0.306E+00  0.280E+00  0.117E-01  0.146E-01
  -1.249  0.305E+00  0.280E+00  0.116E-01  0.143E-01
  -1.239  0.302E+00  0.276E+00  0.113E-01  0.140E-01
  -1.229  0.296E+00  0.271E+00  0.109E-01  0.135E-01
  -1.219  0.289E+00  0.266E+00  0.105E-01  0.130E-01
  -1.209  0.282E+00  0.260E+00  0.101E-01  0.125E-01
  -1.199  0.275E+00  0.254E+00  0.971E-02  0.120E-01
  -1.189  0.269E+00  0.248E+00  0.932E-02  0.116E-01
  -1.179  0.262E+00  0.241E+00  0.894E-02  0.111E-01
  -1.169  0.255E+00  0.235E+00  0.857E-02  0.106E-01
  -1.159  0.248E+00  0.229E+00  0.821E-02  0.102E-01
  -1.149  0.240E+00  0.223E+00  0.785E-02  0.976E-02
  -1.139  0.233E+00  0.216E+00  0.750E-02  0.933E-02
  -1.129  0.226E+00  0.210E+00  0.716E-02  0.890E-02
  -1.119  0.219E+00  0.204E+00  0.683E-02  0.849E-02
  -1.109  0.212E+00  0.197E+00  0.650E-02  0.809E-02
  -1.099  0.207E+00  0.193E+00  0.628E-02  0.781E-02
  -1.089  0.206E+00  0.192E+00  0.618E-02  0.766E-02
  -1.079  0.205E+00  0.191E+00  0.609E-02  0.749E-02
  -1.069  0.204E+00  0.190E+00  0.602E-02  0.731E-02
  -1.059  0.202E+00  0.189E+00  0.595E-02  0.711E-02
  -1.049  0.201E+00  0.188E+00  0.590E-02  0.689E-02
  -1.039  0.200E+00  0.188E+00  0.586E-02  0.666E-02
  -1.029  0.199E+00  0.187E+00  0.583E-02  0.641E-02
  -1.019  0.198E+00  0.186E+00  0.581E-02  0.615E-02
  -1.009  0.197E+00  0.185E+00  0.580E-02  0.587E-02
  -0.999  0.195E+00  0.184E+00  0.580E-02  0.557E-02
  -0.989  0.194E+00  0.183E+00  0.582E-02  0.526E-02
  -0.979  0.193E+00  0.182E+00  0.584E-02  0.493E-02
  -0.969  0.192E+00  0.182E+00  0.588E-02  0.458E-02
  -0.959  0.191E+00  0.181E+00  0.593E-02  0.422E-02
  -0.949  0.158E+00  0.150E+00  0.388E-02  0.424E-02
  -0.939  0.155E+00  0.148E+00  0.356E-02  0.390E-02
  -0.929  0.152E+00  0.145E+00  0.325E-02  0.357E-02
  -0.919  0.149E+00  0.143E+00  0.295E-02  0.325E-02
  -0.909  0.145E+00  0.139E+00  0.267E-02  0.295E-02
  -0.899  0.141E+00  0.136E+00  0.240E-02  0.267E-02
  -0.889  0.136E+00  0.132E+00  0.215E-02  0.240E-02
  -0.879  0.131E+00  0.127E+00  0.191E-02  0.214E-02
  -0.869  0.126E+00  0.123E+00  0.168E-02  0.190E-02
  -0.859  0.120E+00  0.117E+00  0.147E-02  0.167E-02
  -0.849  0.114E+00  0.112E+00  0.128E-02  0.145E-02
  -0.839  0.108E+00  0.105E+00  0.109E-02  0.125E-02
  -0.829  0.101E+00  0.988E-01  0.925E-03  0.107E-02
  -0.819  0.935E-01  0.918E-01  0.770E-03  0.899E-03
  -0.809  0.858E-01  0.844E-01  0.629E-03  0.743E-03
  -0.799  0.777E-01  0.766E-01  0.503E-03  0.602E-03
  -0.789  0.692E-01  0.683E-01  0.390E-03  0.476E-03
  -0.779  0.603E-01  0.596E-01  0.292E-03  0.364E-03
  -0.769  0.510E-01  0.505E-01  0.208E-03  0.267E-03
  -0.759  0.413E-01  0.410E-01  0.138E-03  0.184E-03
  -0.749  0.312E-01  0.310E-01  0.821E-04  0.115E-03
  -0.739  0.207E-01  0.206E-01  0.403E-04  0.616E-04
  -0.729  0.983E-02  0.979E-02  0.126E-04  0.224E-04
  -0.719  0.000E+00  0.000E+00  0.000E+00  0.000E+00
  -0.709  0.000E+00  0.000E+00  0.000E+00  0.000E+00
  -0.699  0.000E+00  0.000E+00  0.000E+00  0.000E+00
  -0.689  0.000E+00  0.000E+00  0.000E+00  0.000E+00
  -0.679  0.000E+00  0.000E+00  0.000E+00  0.000E+00
  -0.669  0.000E+00  0.000E+00  0.000E+00  0.000E+00
  -0.659  0.000E+00  0.000E+00  0.000E+00  0.000E+00
  -0.649  0.000E+00  0.000E+00  0.000E+00  0.000E+00
  -0.639  0.000E+00  0.000E+00  0.000E+00  0.000E+00
  -0.629  0.000E+00  0.000E+00  0.000E+00  0.000E+00
  -0.619  0.155E-03  0.565E-04  0.311E-07  0.989E-04
  -0.609  0.120E-02  0.606E-03  0.115E-05  0.588E-03
  -0.599  0.265E-02  0.160E-02  0.388E-05  0.105E-02
  -0.589  0.478E-02  0.306E-02  0.221E-03  0.150E-02
  -0.579  0.804E-02  0.535E-02  0.761E-03  0.192E-02
  -0.569  0.124E-01  0.878E-02  0.127E-02  0.233E-02
  -0.559  0.177E-01  0.132E-01  0.177E-02  0.273E-02
  -0.549  0.238E-01  0.185E-01  0.223E-02  0.311E-02
  -0.539  0.309E-01  0.247E-01  0.268E-02  0.348E-02
  -0.529  0.388E-01  0.319E-01  0.310E-02  0.384E-02
  -0.519  0.476E-01  0.400E-01  0.349E-02  0.418E-02
  -0.509  0.574E-01  0.490E-01  0.387E-02  0.450E-02
  -0.499  0.679E-01  0.589E-01  0.422E-02  0.482E-02
  -0.489  0.794E-01  0.698E-01  0.455E-02  0.511E-02
  -0.479  0.918E-01  0.815E-01  0.485E-02  0.540E-02
  -0.469  0.105E+00  0.942E-01  0.513E-02  0.567E-02
  -0.459  0.119E+00  0.108E+00  0.539E-02  0.593E-02
  -0.449  0.134E+00  0.122E+00  0.562E-02  0.617E-02
  -0.439  0.150E+00  0.138E+00  0.583E-02  0.640E-02
  -0.429  0.167E+00  0.154E+00  0.601E-02  0.662E-02
  -0.419  0.362E+00  0.337E+00  0.749E-02  0.166E-01
  -0.409  0.380E+00  0.355E+00  0.840E-02  0.159E-01
  -0.399  0.421E+00  0.395E+00  0.108E-01  0.158E-01
  -0.389  0.443E+00  0.416E+00  0.118E-01  0.156E-01
  -0.379  0.465E+00  0.437E+00  0.127E-01  0.156E-01
  -0.369  0.488E+00  0.459E+00  0.135E-01  0.157E-01
  -0.359  0.588E+00  0.554E+00  0.158E-01  0.182E-01
  -0.349  0.128E+01  0.121E+01  0.294E-01  0.367E-01
  -0.339  0.236E+01  0.224E+01  0.500E-01  0.656E-01
  -0.329  0.346E+01  0.329E+01  0.709E-01  0.961E-01
  -0.319  0.182E+01  0.173E+01  0.386E-01  0.540E-01
  -0.309  0.182E+01  0.172E+01  0.379E-01  0.571E-01
  -0.299  0.181E+01  0.171E+01  0.371E-01  0.605E-01
  -0.289  0.114E+01  0.108E+01  0.265E-01  0.392E-01
  -0.279  0.297E+00  0.278E+00  0.114E-01  0.712E-02
  -0.269  0.313E+00  0.294E+00  0.116E-01  0.765E-02
  -0.259  0.132E+01  0.124E+01  0.460E-01  0.267E-01
  -0.249  0.153E+01  0.144E+01  0.529E-01  0.314E-01
  -0.239  0.188E+01  0.178E+01  0.647E-01  0.389E-01
  -0.229  0.447E+01  0.422E+01  0.150E+00  0.949E-01
  -0.219  0.137E-01  0.972E-02  0.123E-02  0.278E-02
  -0.209  0.142E-01  0.100E-01  0.130E-02  0.293E-02
  -0.199  0.148E-01  0.103E-01  0.137E-02  0.309E-02
  -0.189  0.153E-01  0.106E-01  0.145E-02  0.326E-02
  -0.179  0.158E-01  0.109E-01  0.152E-02  0.343E-02
  -0.169  0.164E-01  0.112E-01  0.160E-02  0.360E-02
  -0.159  0.169E-01  0.114E-01  0.168E-02  0.378E-02
  -0.149  0.175E-01  0.117E-01  0.176E-02  0.396E-02
  -0.139  0.180E-01  0.120E-01  0.185E-02  0.415E-02
  -0.129  0.186E-01  0.123E-01  0.193E-02  0.434E-02
  -0.119  0.191E-01  0.126E-01  0.202E-02  0.453E-02
  -0.109  0.537E-01  0.400E-01  0.478E-02  0.885E-02
  -0.099  0.988E-01  0.748E-01  0.882E-02  0.152E-01
  -0.089  0.154E+00  0.109E+00  0.190E-01  0.254E-01
  -0.079  0.270E+00  0.170E+00  0.381E-01  0.616E-01
  -0.069  0.100E+01  0.611E+00  0.116E+00  0.277E+00
  -0.059  0.188E+01  0.111E+01  0.204E+00  0.568E+00
  -0.049  0.545E+00  0.346E+00  0.500E-01  0.149E+00
  -0.039  0.375E+00  0.221E+00  0.482E-01  0.106E+00
  -0.029  0.375E+00  0.220E+00  0.406E-01  0.113E+00
  -0.019  0.479E+00  0.288E+00  0.438E-01  0.147E+00
  -0.009  0.413E+00  0.245E+00  0.357E-01  0.132E+00
   0.001  0.343E+00  0.195E+00  0.298E-01  0.119E+00
   0.011  0.295E+00  0.163E+00  0.262E-01  0.106E+00
   0.021  0.263E+00  0.148E+00  0.216E-01  0.941E-01
   0.031  0.217E+00  0.136E+00  0.174E-01  0.634E-01
   0.041  0.186E+00  0.132E+00  0.166E-01  0.370E-01
   0.051  0.207E+00  0.145E+00  0.168E-01  0.452E-01
   0.061  0.298E+00  0.204E+00  0.225E-01  0.718E-01
   0.071  0.220E+00  0.129E+00  0.551E-02  0.851E-01
   0.081  0.389E-01  0.208E-01  0.313E-02  0.149E-01
   0.091  0.832E-02  0.319E-02  0.319E-02  0.195E-02
   0.101  0.880E-02  0.338E-02  0.330E-02  0.212E-02
   0.111  0.928E-02  0.357E-02  0.342E-02  0.229E-02
   0.121  0.978E-02  0.377E-02  0.354E-02  0.247E-02
   0.131  0.103E-01  0.397E-02  0.366E-02  0.265E-02
   0.141  0.108E-01  0.418E-02  0.378E-02  0.284E-02
   0.151  0.113E-01  0.440E-02  0.389E-02  0.303E-02
   0.161  0.118E-01  0.461E-02  0.401E-02  0.322E-02
   0.171  0.124E-01  0.484E-02  0.413E-02  0.342E-02
   0.181  0.129E-01  0.507E-02  0.425E-02  0.362E-02
   0.191  0.135E-01  0.530E-02  0.436E-02  0.382E-02
   0.201  0.140E-01  0.554E-02  0.448E-02  0.403E-02
   0.211  0.146E-01  0.578E-02  0.460E-02  0.424E-02
   0.221  0.152E-01  0.603E-02  0.472E-02  0.446E-02
   0.231  0.158E-01  0.628E-02  0.483E-02  0.467E-02
   0.241  0.164E-01  0.654E-02  0.495E-02  0.490E-02
   0.251  0.170E-01  0.681E-02  0.507E-02  0.512E-02
   0.261  0.176E-01  0.708E-02  0.518E-02  0.535E-02
   0.271  0.182E-01  0.735E-02  0.530E-02  0.559E-02
   0.281  0.189E-01  0.763E-02  0.542E-02  0.583E-02
   0.291  0.195E-01  0.791E-02  0.554E-02  0.607E-02
   0.301  0.202E-01  0.820E-02  0.565E-02  0.631E-02
   0.311  0.208E-01  0.850E-02  0.577E-02  0.656E-02
   0.321  0.215E-01  0.880E-02  0.589E-02  0.682E-02
   0.331  0.222E-01  0.910E-02  0.600E-02  0.707E-02
   0.341  0.229E-01  0.941E-02  0.612E-02  0.733E-02
   0.351  0.236E-01  0.972E-02  0.624E-02  0.760E-02
   0.361  0.243E-01  0.100E-01  0.635E-02  0.786E-02
   0.371  0.250E-01  0.104E-01  0.647E-02  0.814E-02
   0.381  0.579E-01  0.264E-01  0.170E-01  0.145E-01
   0.391  0.206E+00  0.977E-01  0.582E-01  0.500E-01
   0.401  0.358E+00  0.169E+00  0.902E-01  0.983E-01
   0.411  0.129E+00  0.594E-01  0.322E-01  0.371E-01
   0.421  0.139E+00  0.646E-01  0.354E-01  0.395E-01
   0.431  0.150E+00  0.696E-01  0.386E-01  0.417E-01
   0.441  0.190E+00  0.884E-01  0.421E-01  0.591E-01
   0.451  0.229E+00  0.107E+00  0.459E-01  0.756E-01
   0.461  0.284E+00  0.136E+00  0.518E-01  0.958E-01
   0.471  0.418E+00  0.199E+00  0.793E-01  0.140E+00
   0.481  0.562E+00  0.272E+00  0.105E+00  0.186E+00
   0.491  0.701E+00  0.349E+00  0.123E+00  0.229E+00
   0.501  0.835E+00  0.432E+00  0.134E+00  0.269E+00
   0.511  0.964E+00  0.519E+00  0.138E+00  0.307E+00
   0.521  0.788E+00  0.409E+00  0.121E+00  0.258E+00
   0.531  0.797E+00  0.412E+00  0.120E+00  0.265E+00
   0.541  0.827E+00  0.421E+00  0.123E+00  0.283E+00
   0.551  0.762E+00  0.379E+00  0.117E+00  0.265E+00
   0.561  0.600E+00  0.293E+00  0.104E+00  0.203E+00
   0.571  0.475E+00  0.230E+00  0.972E-01  0.148E+00
   0.581  0.475E+00  0.228E+00  0.101E+00  0.146E+00
   0.591  0.472E+00  0.225E+00  0.105E+00  0.143E+00
   0.601  0.477E+00  0.223E+00  0.113E+00  0.141E+00
   0.611  0.479E+00  0.221E+00  0.120E+00  0.138E+00
   0.621  0.444E+00  0.203E+00  0.121E+00  0.120E+00
   0.631  0.352E+00  0.154E+00  0.110E+00  0.876E-01
   0.641  0.332E+00  0.146E+00  0.107E+00  0.791E-01
   0.651  0.335E+00  0.151E+00  0.108E+00  0.763E-01
   0.661  0.326E+00  0.149E+00  0.105E+00  0.727E-01
   0.671  0.318E+00  0.147E+00  0.102E+00  0.694E-01
   0.681  0.310E+00  0.144E+00  0.100E+00  0.664E-01
   0.691  0.303E+00  0.140E+00  0.990E-01  0.637E-01
   0.701  0.298E+00  0.136E+00  0.100E+00  0.616E-01
   0.711  0.297E+00  0.132E+00  0.105E+00  0.603E-01
   0.721  0.297E+00  0.127E+00  0.111E+00  0.594E-01
   0.731  0.297E+00  0.122E+00  0.117E+00  0.588E-01
   0.741  0.298E+00  0.116E+00  0.124E+00  0.586E-01
   0.751  0.343E+00  0.121E+00  0.150E+00  0.722E-01
   0.761  0.340E+00  0.132E+00  0.142E+00  0.661E-01
   0.771  0.338E+00  0.139E+00  0.137E+00  0.622E-01
   0.781  0.337E+00  0.142E+00  0.134E+00  0.605E-01
   0.791  0.334E+00  0.141E+00  0.133E+00  0.603E-01
   0.801  0.320E+00  0.135E+00  0.127E+00  0.582E-01
   0.811  0.308E+00  0.126E+00  0.125E+00  0.579E-01
   0.821  0.308E+00  0.125E+00  0.124E+00  0.590E-01
   0.831  0.451E+00  0.205E+00  0.175E+00  0.707E-01
   0.841  0.414E+00  0.180E+00  0.165E+00  0.688E-01
   0.851  0.375E+00  0.154E+00  0.153E+00  0.678E-01
   0.861  0.335E+00  0.128E+00  0.139E+00  0.678E-01
   0.871  0.418E+00  0.137E+00  0.183E+00  0.974E-01
   0.881  0.460E+00  0.152E+00  0.199E+00  0.109E+00
   0.891  0.481E+00  0.178E+00  0.194E+00  0.109E+00
   0.901  0.352E+00  0.112E+00  0.141E+00  0.981E-01
   0.911  0.422E+00  0.139E+00  0.150E+00  0.133E+00
   0.921  0.502E+00  0.190E+00  0.153E+00  0.159E+00
   0.931  0.604E+00  0.268E+00  0.155E+00  0.182E+00
   0.941  0.671E+00  0.323E+00  0.151E+00  0.197E+00
   0.951  0.715E+00  0.360E+00  0.149E+00  0.206E+00
   0.961  0.737E+00  0.379E+00  0.148E+00  0.211E+00
   0.971  0.618E+00  0.361E+00  0.902E-01  0.166E+00
   0.981  0.621E+00  0.380E+00  0.802E-01  0.161E+00
   0.991  0.413E+00  0.238E+00  0.676E-01  0.108E+00
   1.001  0.463E+00  0.272E+00  0.723E-01  0.119E+00
   1.011  0.506E+00  0.294E+00  0.808E-01  0.131E+00
   1.021  0.541E+00  0.304E+00  0.930E-01  0.144E+00
   1.031  0.144E+01  0.649E+00  0.351E+00  0.435E+00
   1.041  0.221E+00  0.123E+00  0.441E-01  0.538E-01
   1.051  0.440E+00  0.229E+00  0.810E-01  0.130E+00
   1.061  0.421E+00  0.221E+00  0.805E-01  0.120E+00
   1.071  0.393E+00  0.209E+00  0.768E-01  0.107E+00
   1.081  0.355E+00  0.193E+00  0.699E-01  0.926E-01
   1.091  0.314E+00  0.174E+00  0.614E-01  0.784E-01
   1.101  0.282E+00  0.158E+00  0.549E-01  0.687E-01
   1.111  0.712E+00  0.432E+00  0.186E+00  0.936E-01
   1.121  0.332E+00  0.172E+00  0.999E-01  0.596E-01
   1.131  0.314E+00  0.163E+00  0.962E-01  0.550E-01
   1.141  0.314E+00  0.156E+00  0.928E-01  0.652E-01
   1.151  0.316E+00  0.147E+00  0.905E-01  0.785E-01
   1.161  0.318E+00  0.136E+00  0.894E-01  0.930E-01
   1.171  0.335E+00  0.131E+00  0.918E-01  0.111E+00
   1.181  0.348E+00  0.127E+00  0.961E-01  0.125E+00
   1.191  0.342E+00  0.125E+00  0.982E-01  0.118E+00
   1.201  0.351E+00  0.133E+00  0.105E+00  0.113E+00
   1.211  0.477E+00  0.255E+00  0.111E+00  0.110E+00
   1.221  0.589E+00  0.365E+00  0.117E+00  0.108E+00
   1.231  0.681E+00  0.458E+00  0.118E+00  0.106E+00
   1.241  0.605E+00  0.388E+00  0.117E+00  0.100E+00
   1.251  0.663E+00  0.442E+00  0.119E+00  0.102E+00
   1.261  0.763E+00  0.528E+00  0.127E+00  0.109E+00
   1.271  0.881E+00  0.638E+00  0.125E+00  0.119E+00
   1.281  0.104E+01  0.800E+00  0.108E+00  0.135E+00
   1.291  0.762E+00  0.622E+00  0.572E-01  0.824E-01
   1.301  0.104E+01  0.886E+00  0.617E-01  0.901E-01
   1.311  0.107E+01  0.930E+00  0.578E-01  0.855E-01
   1.321  0.111E+01  0.975E+00  0.545E-01  0.823E-01
   1.331  0.667E+00  0.569E+00  0.416E-01  0.565E-01
   1.341  0.603E+00  0.508E+00  0.403E-01  0.548E-01
   1.351  0.638E+00  0.509E+00  0.659E-01  0.624E-01
   1.361  0.740E+00  0.581E+00  0.799E-01  0.784E-01
   1.371  0.655E+00  0.505E+00  0.755E-01  0.752E-01
   1.381  0.563E+00  0.423E+00  0.702E-01  0.702E-01
   1.391  0.488E+00  0.357E+00  0.669E-01  0.648E-01
   1.401  0.422E+00  0.301E+00  0.634E-01  0.580E-01
   1.411  0.358E+00  0.249E+00  0.592E-01  0.499E-01
   1.421  0.308E+00  0.206E+00  0.581E-01  0.442E-01
   1.431  0.445E+00  0.251E+00  0.110E+00  0.843E-01
   1.441  0.475E+00  0.191E+00  0.155E+00  0.129E+00
   1.451  0.447E+00  0.144E+00  0.163E+00  0.139E+00
   1.461  0.361E+00  0.111E+00  0.136E+00  0.114E+00
   1.471  0.225E+00  0.964E-01  0.726E-01  0.556E-01
   1.481  0.189E+00  0.988E-01  0.528E-01  0.370E-01
   1.491  0.198E+00  0.103E+00  0.555E-01  0.396E-01
   1.501  0.266E+00  0.145E+00  0.655E-01  0.564E-01
   1.511  0.466E+00  0.208E+00  0.112E+00  0.146E+00
   1.521  0.636E+00  0.315E+00  0.140E+00  0.180E+00
   1.531  0.775E+00  0.466E+00  0.150E+00  0.158E+00
   1.541  0.346E+00  0.198E+00  0.844E-01  0.632E-01
   1.551  0.373E+00  0.217E+00  0.897E-01  0.667E-01
   1.561  0.525E+00  0.349E+00  0.100E+00  0.758E-01
   1.571  0.512E+00  0.325E+00  0.105E+00  0.813E-01
   1.581  0.530E+00  0.334E+00  0.109E+00  0.876E-01
   1.591  0.589E+00  0.376E+00  0.116E+00  0.968E-01
   1.601  0.656E+00  0.423E+00  0.125E+00  0.109E+00
   1.611  0.724E+00  0.468E+00  0.134E+00  0.122E+00
   1.621  0.551E+00  0.350E+00  0.102E+00  0.987E-01
   1.631  0.568E+00  0.361E+00  0.102E+00  0.105E+00
   1.641  0.583E+00  0.367E+00  0.104E+00  0.113E+00
   1.651  0.596E+00  0.369E+00  0.105E+00  0.121E+00
   1.661  0.610E+00  0.371E+00  0.108E+00  0.132E+00
   1.671  0.609E+00  0.365E+00  0.108E+00  0.136E+00
   1.681  0.597E+00  0.352E+00  0.107E+00  0.138E+00
   1.691  0.578E+00  0.332E+00  0.106E+00  0.141E+00
   1.701  0.549E+00  0.303E+00  0.104E+00  0.141E+00
   1.711  0.516E+00  0.271E+00  0.103E+00  0.142E+00
   1.721  0.481E+00  0.235E+00  0.102E+00  0.144E+00
   1.731  0.321E+00  0.180E+00  0.575E-01  0.838E-01
   1.741  0.279E+00  0.158E+00  0.492E-01  0.726E-01
   1.751  0.239E+00  0.135E+00  0.418E-01  0.624E-01
   1.761  0.200E+00  0.112E+00  0.354E-01  0.531E-01
   1.771  0.163E+00  0.886E-01  0.299E-01  0.449E-01
   1.781  0.297E+00  0.206E+00  0.404E-01  0.502E-01
   1.791  0.236E+00  0.158E+00  0.323E-01  0.462E-01
   1.801  0.181E+00  0.116E+00  0.251E-01  0.405E-01
   1.811  0.132E+00  0.807E-01  0.188E-01  0.329E-01
   1.821  0.892E-01  0.521E-01  0.134E-01  0.236E-01
   1.831  0.518E-01  0.302E-01  0.896E-02  0.126E-01
   1.841  0.382E-01  0.225E-01  0.696E-02  0.880E-02
   1.851  0.279E-01  0.161E-01  0.557E-02  0.623E-02
   1.861  0.200E-01  0.109E-01  0.464E-02  0.450E-02
   1.871  0.152E-01  0.766E-02  0.384E-02  0.371E-02
   1.881  0.109E-01  0.500E-02  0.299E-02  0.288E-02
   1.891  0.697E-02  0.286E-02  0.210E-02  0.202E-02
   1.901  0.352E-02  0.124E-02  0.116E-02  0.112E-02
   1.911  0.516E-03  0.148E-03  0.189E-03  0.180E-03
   1.921  0.000E+00  0.000E+00  0.000E+00  0.000E+00
