# E (eV)   ldos(E)   pdos(E)   
 -15.919  0.000E+00  0.000E+00
 -15.909  0.228E-02  0.228E-02
 -15.899  0.451E-02  0.451E-02
 -15.889  0.326E-02  0.326E-02
 -15.879  0.340E-02  0.340E-02
 -15.869  0.354E-02  0.354E-02
 -15.859  0.368E-02  0.368E-02
 -15.849  0.381E-02  0.381E-02
 -15.839  0.394E-02  0.394E-02
 -15.829  0.397E-02  0.397E-02
 -15.819  0.372E-02  0.372E-02
 -15.809  0.349E-02  0.349E-02
 -15.799  0.337E-02  0.337E-02
 -15.789  0.345E-02  0.345E-02
 -15.779  0.354E-02  0.354E-02
 -15.769  0.364E-02  0.364E-02
 -15.759  0.376E-02  0.376E-02
 -15.749  0.389E-02  0.389E-02
 -15.739  0.403E-02  0.403E-02
 -15.729  0.419E-02  0.419E-02
 -15.719  0.435E-02  0.435E-02
 -15.709  0.873E-02  0.873E-02
 -15.699  0.757E-02  0.757E-02
 -15.689  0.608E-02  0.608E-02
 -15.679  0.426E-02  0.426E-02
 -15.669  0.235E-02  0.235E-02
 -15.659  0.216E-02  0.216E-02
 -15.649  0.193E-02  0.193E-02
 -15.639  0.166E-02  0.166E-02
 -15.629  0.139E-02  0.139E-02
 -15.619  0.112E-02  0.112E-02
 -15.609  0.835E-03  0.835E-03
 -15.599  0.546E-03  0.546E-03
 -15.589  0.532E-03  0.532E-03
 -15.579  0.737E-03  0.737E-03
 -15.569  0.975E-03  0.975E-03
 -15.559  0.150E-02  0.150E-02
 -15.549  0.505E-02  0.505E-02
 -15.539  0.132E-02  0.132E-02
 -15.529  0.135E-02  0.135E-02
 -15.519  0.138E-02  0.138E-02
 -15.509  0.141E-02  0.141E-02
 -15.499  0.143E-02  0.143E-02
 -15.489  0.146E-02  0.146E-02
 -15.479  0.149E-02  0.149E-02
 -15.469  0.152E-02  0.152E-02
 -15.459  0.155E-02  0.155E-02
 -15.449  0.158E-02  0.158E-02
 -15.439  0.162E-02  0.162E-02
 -15.429  0.165E-02  0.165E-02
 -15.419  0.169E-02  0.169E-02
 -15.409  0.173E-02  0.173E-02
 -15.399  0.177E-02  0.177E-02
 -15.389  0.181E-02  0.181E-02
 -15.379  0.185E-02  0.185E-02
 -15.369  0.189E-02  0.189E-02
 -15.359  0.226E-02  0.226E-02
 -15.349  0.204E-02  0.204E-02
 -15.339  0.185E-02  0.185E-02
 -15.329  0.168E-02  0.168E-02
 -15.319  0.155E-02  0.155E-02
 -15.309  0.147E-02  0.147E-02
 -15.299  0.142E-02  0.142E-02
 -15.289  0.138E-02  0.138E-02
 -15.279  0.134E-02  0.134E-02
 -15.269  0.129E-02  0.129E-02
 -15.259  0.124E-02  0.124E-02
 -15.249  0.119E-02  0.119E-02
 -15.239  0.113E-02  0.113E-02
 -15.229  0.107E-02  0.107E-02
 -15.219  0.101E-02  0.101E-02
 -15.209  0.948E-03  0.948E-03
 -15.199  0.492E-03  0.492E-03
 -15.189  0.481E-03  0.481E-03
 -15.179  0.467E-03  0.467E-03
 -15.169  0.453E-03  0.453E-03
 -15.159  0.436E-03  0.436E-03
 -15.149  0.418E-03  0.418E-03
 -15.139  0.402E-03  0.402E-03
 -15.129  0.707E-03  0.707E-03
 -15.119  0.101E-02  0.101E-02
 -15.109  0.127E-02  0.127E-02
 -15.099  0.135E-02  0.135E-02
 -15.089  0.142E-02  0.142E-02
 -15.079  0.150E-02  0.150E-02
 -15.069  0.156E-02  0.156E-02
 -15.059  0.163E-02  0.163E-02
 -15.049  0.169E-02  0.169E-02
 -15.039  0.175E-02  0.175E-02
 -15.029  0.180E-02  0.180E-02
 -15.019  0.299E-02  0.299E-02
 -15.009  0.278E-02  0.278E-02
 -14.999  0.257E-02  0.257E-02
 -14.989  0.238E-02  0.238E-02
 -14.979  0.219E-02  0.219E-02
 -14.969  0.202E-02  0.202E-02
 -14.959  0.185E-02  0.185E-02
 -14.949  0.170E-02  0.170E-02
 -14.939  0.156E-02  0.156E-02
 -14.929  0.142E-02  0.142E-02
 -14.919  0.130E-02  0.130E-02
 -14.909  0.121E-02  0.121E-02
 -14.899  0.115E-02  0.115E-02
 -14.889  0.108E-02  0.108E-02
 -14.879  0.102E-02  0.102E-02
 -14.869  0.962E-03  0.962E-03
 -14.859  0.192E-02  0.192E-02
 -14.849  0.175E-02  0.175E-02
 -14.839  0.152E-02  0.152E-02
 -14.829  0.123E-02  0.123E-02
 -14.819  0.886E-03  0.886E-03
 -14.809  0.486E-03  0.486E-03
 -14.799  0.444E-03  0.444E-03
 -14.789  0.475E-03  0.475E-03
 -14.779  0.508E-03  0.508E-03
 -14.769  0.544E-03  0.544E-03
 -14.759  0.581E-03  0.581E-03
 -14.749  0.621E-03  0.621E-03
 -14.739  0.662E-03  0.662E-03
 -14.729  0.706E-03  0.706E-03
 -14.719  0.752E-03  0.752E-03
 -14.709  0.801E-03  0.801E-03
 -14.699  0.851E-03  0.851E-03
 -14.689  0.605E-03  0.605E-03
 -14.679  0.613E-03  0.613E-03
 -14.669  0.621E-03  0.621E-03
 -14.659  0.629E-03  0.629E-03
 -14.649  0.636E-03  0.636E-03
 -14.639  0.642E-03  0.642E-03
 -14.629  0.648E-03  0.648E-03
 -14.619  0.654E-03  0.654E-03
 -14.609  0.659E-03  0.659E-03
 -14.599  0.663E-03  0.663E-03
 -14.589  0.667E-03  0.667E-03
 -14.579  0.671E-03  0.671E-03
 -14.569  0.674E-03  0.674E-03
 -14.559  0.729E-03  0.729E-03
 -14.549  0.145E-02  0.145E-02
 -14.539  0.302E-02  0.302E-02
 -14.529  0.757E-03  0.757E-03
 -14.519  0.753E-03  0.753E-03
 -14.509  0.750E-03  0.750E-03
 -14.499  0.746E-03  0.746E-03
 -14.489  0.743E-03  0.743E-03
 -14.479  0.739E-03  0.739E-03
 -14.469  0.735E-03  0.735E-03
 -14.459  0.732E-03  0.732E-03
 -14.449  0.745E-03  0.745E-03
 -14.439  0.763E-03  0.763E-03
 -14.429  0.779E-03  0.779E-03
 -14.419  0.793E-03  0.793E-03
 -14.409  0.806E-03  0.806E-03
 -14.399  0.818E-03  0.818E-03
 -14.389  0.828E-03  0.828E-03
 -14.379  0.836E-03  0.836E-03
 -14.369  0.843E-03  0.843E-03
 -14.359  0.849E-03  0.849E-03
 -14.349  0.853E-03  0.853E-03
 -14.339  0.854E-03  0.854E-03
 -14.329  0.845E-03  0.845E-03
 -14.319  0.834E-03  0.834E-03
 -14.309  0.822E-03  0.822E-03
 -14.299  0.811E-03  0.811E-03
 -14.289  0.800E-03  0.800E-03
 -14.279  0.789E-03  0.789E-03
 -14.269  0.779E-03  0.779E-03
 -14.259  0.768E-03  0.768E-03
 -14.249  0.758E-03  0.758E-03
 -14.239  0.749E-03  0.749E-03
 -14.229  0.739E-03  0.739E-03
 -14.219  0.903E-03  0.903E-03
 -14.209  0.636E-03  0.636E-03
 -14.199  0.434E-03  0.434E-03
 -14.189  0.297E-03  0.297E-03
 -14.179  0.224E-03  0.224E-03
 -14.169  0.216E-03  0.216E-03
 -14.159  0.950E-03  0.950E-03
 -14.149  0.140E-02  0.140E-02
 -14.139  0.138E-02  0.138E-02
 -14.129  0.127E-02  0.127E-02
 -14.119  0.116E-02  0.116E-02
 -14.109  0.105E-02  0.105E-02
 -14.099  0.937E-03  0.937E-03
 -14.089  0.819E-03  0.819E-03
 -14.079  0.699E-03  0.699E-03
 -14.069  0.310E-03  0.310E-03
 -14.059  0.328E-03  0.328E-03
 -14.049  0.345E-03  0.345E-03
 -14.039  0.360E-03  0.360E-03
 -14.029  0.373E-03  0.373E-03
 -14.019  0.385E-03  0.385E-03
 -14.009  0.395E-03  0.395E-03
 -13.999  0.404E-03  0.404E-03
 -13.989  0.412E-03  0.412E-03
 -13.979  0.417E-03  0.417E-03
 -13.969  0.421E-03  0.421E-03
 -13.959  0.424E-03  0.424E-03
 -13.949  0.425E-03  0.425E-03
 -13.939  0.425E-03  0.425E-03
 -13.929  0.423E-03  0.423E-03
 -13.919  0.887E-03  0.887E-03
 -13.909  0.879E-03  0.879E-03
 -13.899  0.861E-03  0.861E-03
 -13.889  0.833E-03  0.833E-03
 -13.879  0.795E-03  0.795E-03
 -13.869  0.747E-03  0.747E-03
 -13.859  0.538E-03  0.538E-03
 -13.849  0.376E-03  0.376E-03
 -13.839  0.408E-03  0.408E-03
 -13.829  0.609E-03  0.609E-03
 -13.819  0.788E-03  0.788E-03
 -13.809  0.945E-03  0.945E-03
 -13.799  0.108E-02  0.108E-02
 -13.789  0.119E-02  0.119E-02
 -13.779  0.128E-02  0.128E-02
 -13.769  0.270E-02  0.270E-02
 -13.759  0.139E-02  0.139E-02
 -13.749  0.816E-03  0.816E-03
 -13.739  0.715E-03  0.715E-03
 -13.729  0.627E-03  0.627E-03
 -13.719  0.550E-03  0.550E-03
 -13.709  0.486E-03  0.486E-03
 -13.699  0.434E-03  0.434E-03
 -13.689  0.407E-03  0.407E-03
 -13.679  0.399E-03  0.399E-03
 -13.669  0.399E-03  0.399E-03
 -13.659  0.400E-03  0.400E-03
 -13.649  0.400E-03  0.400E-03
 -13.639  0.403E-03  0.403E-03
 -13.629  0.410E-03  0.410E-03
 -13.619  0.421E-03  0.421E-03
 -13.609  0.435E-03  0.435E-03
 -13.599  0.453E-03  0.453E-03
 -13.589  0.475E-03  0.475E-03
 -13.579  0.501E-03  0.501E-03
 -13.569  0.531E-03  0.531E-03
 -13.559  0.564E-03  0.564E-03
 -13.549  0.602E-03  0.602E-03
 -13.539  0.643E-03  0.643E-03
 -13.529  0.688E-03  0.688E-03
 -13.519  0.737E-03  0.737E-03
 -13.509  0.614E-03  0.614E-03
 -13.499  0.591E-03  0.591E-03
 -13.489  0.573E-03  0.573E-03
 -13.479  0.187E-02  0.187E-02
 -13.469  0.506E-03  0.506E-03
 -13.459  0.431E-03  0.431E-03
 -13.449  0.435E-03  0.435E-03
 -13.439  0.441E-03  0.441E-03
 -13.429  0.450E-03  0.450E-03
 -13.419  0.460E-03  0.460E-03
 -13.409  0.470E-03  0.470E-03
 -13.399  0.480E-03  0.480E-03
 -13.389  0.490E-03  0.490E-03
 -13.379  0.501E-03  0.501E-03
 -13.369  0.512E-03  0.512E-03
 -13.359  0.521E-03  0.521E-03
 -13.349  0.531E-03  0.531E-03
 -13.339  0.541E-03  0.541E-03
 -13.329  0.561E-03  0.561E-03
 -13.319  0.581E-03  0.581E-03
 -13.309  0.600E-03  0.600E-03
 -13.299  0.619E-03  0.619E-03
 -13.289  0.638E-03  0.638E-03
 -13.279  0.656E-03  0.656E-03
 -13.269  0.773E-03  0.773E-03
 -13.259  0.781E-03  0.781E-03
 -13.249  0.788E-03  0.788E-03
 -13.239  0.795E-03  0.795E-03
 -13.229  0.800E-03  0.800E-03
 -13.219  0.805E-03  0.805E-03
 -13.209  0.809E-03  0.809E-03
 -13.199  0.811E-03  0.811E-03
 -13.189  0.813E-03  0.813E-03
 -13.179  0.814E-03  0.814E-03
 -13.169  0.814E-03  0.814E-03
 -13.159  0.817E-03  0.817E-03
 -13.149  0.828E-03  0.828E-03
 -13.139  0.122E-02  0.122E-02
 -13.129  0.144E-02  0.144E-02
 -13.119  0.149E-02  0.149E-02
 -13.109  0.127E-02  0.127E-02
 -13.099  0.121E-02  0.121E-02
 -13.089  0.984E-03  0.984E-03
 -13.079  0.596E-03  0.596E-03
 -13.069  0.553E-03  0.553E-03
 -13.059  0.493E-03  0.493E-03
 -13.049  0.410E-03  0.410E-03
 -13.039  0.398E-03  0.398E-03
 -13.029  0.430E-03  0.430E-03
 -13.019  0.166E-14  0.166E-14
 -13.009  0.955E-07  0.955E-07
 -12.999  0.309E-05  0.309E-05
 -12.989  0.106E-04  0.106E-04
 -12.979  0.319E-04  0.319E-04
 -12.969  0.712E-04  0.712E-04
 -12.959  0.129E-03  0.129E-03
 -12.949  0.213E-03  0.213E-03
 -12.939  0.331E-03  0.331E-03
 -12.929  0.469E-03  0.469E-03
 -12.919  0.629E-03  0.629E-03
 -12.909  0.832E-03  0.832E-03
 -12.899  0.154E-02  0.154E-02
 -12.889  0.122E-02  0.122E-02
 -12.879  0.125E-02  0.125E-02
 -12.869  0.126E-02  0.126E-02
 -12.859  0.122E-02  0.122E-02
 -12.849  0.115E-02  0.115E-02
 -12.839  0.108E-02  0.108E-02
 -12.829  0.120E-02  0.120E-02
 -12.819  0.132E-02  0.132E-02
 -12.809  0.143E-02  0.143E-02
 -12.799  0.102E-02  0.102E-02
 -12.789  0.965E-03  0.965E-03
 -12.779  0.897E-03  0.897E-03
 -12.769  0.779E-03  0.779E-03
 -12.759  0.631E-03  0.631E-03
 -12.749  0.571E-03  0.571E-03
 -12.739  0.507E-03  0.507E-03
 -12.729  0.439E-03  0.439E-03
 -12.719  0.367E-03  0.367E-03
 -12.709  0.292E-03  0.292E-03
 -12.699  0.212E-03  0.212E-03
 -12.689  0.140E-03  0.140E-03
 -12.679  0.149E-03  0.149E-03
 -12.669  0.158E-03  0.158E-03
 -12.659  0.169E-03  0.169E-03
 -12.649  0.181E-03  0.181E-03
 -12.639  0.194E-03  0.194E-03
 -12.629  0.215E-03  0.215E-03
 -12.619  0.257E-03  0.257E-03
 -12.609  0.319E-03  0.319E-03
 -12.599  0.401E-03  0.401E-03
 -12.589  0.504E-03  0.504E-03
 -12.579  0.628E-03  0.628E-03
 -12.569  0.330E-03  0.330E-03
 -12.559  0.334E-03  0.334E-03
 -12.549  0.332E-03  0.332E-03
 -12.539  0.323E-03  0.323E-03
 -12.529  0.308E-03  0.308E-03
 -12.519  0.392E-03  0.392E-03
 -12.509  0.424E-03  0.424E-03
 -12.499  0.429E-03  0.429E-03
 -12.489  0.437E-03  0.437E-03
 -12.479  0.447E-03  0.447E-03
 -12.469  0.459E-03  0.459E-03
 -12.459  0.474E-03  0.474E-03
 -12.449  0.491E-03  0.491E-03
 -12.439  0.511E-03  0.511E-03
 -12.429  0.533E-03  0.533E-03
 -12.419  0.523E-03  0.523E-03
 -12.409  0.509E-03  0.509E-03
 -12.399  0.492E-03  0.492E-03
 -12.389  0.472E-03  0.472E-03
 -12.379  0.449E-03  0.449E-03
 -12.369  0.422E-03  0.422E-03
 -12.359  0.393E-03  0.393E-03
 -12.349  0.543E-03  0.543E-03
 -12.339  0.445E-03  0.445E-03
 -12.329  0.345E-03  0.345E-03
 -12.319  0.244E-03  0.244E-03
 -12.309  0.143E-03  0.143E-03
 -12.299  0.400E-04  0.400E-04
 -12.289  0.000E+00  0.000E+00
 -12.279  0.000E+00  0.000E+00
 -12.269  0.000E+00  0.000E+00
 -12.259  0.000E+00  0.000E+00
 -12.249  0.000E+00  0.000E+00
 -12.239  0.000E+00  0.000E+00
 -12.229  0.000E+00  0.000E+00
 -12.219  0.000E+00  0.000E+00
 -12.209  0.000E+00  0.000E+00
 -12.199  0.000E+00  0.000E+00
 -12.189  0.000E+00  0.000E+00
 -12.179  0.000E+00  0.000E+00
 -12.169  0.000E+00  0.000E+00
 -12.159  0.000E+00  0.000E+00
 -12.149  0.000E+00  0.000E+00
 -12.139  0.000E+00  0.000E+00
 -12.129  0.000E+00  0.000E+00
 -12.119  0.000E+00  0.000E+00
 -12.109  0.000E+00  0.000E+00
 -12.099  0.000E+00  0.000E+00
 -12.089  0.000E+00  0.000E+00
 -12.079  0.000E+00  0.000E+00
 -12.069  0.000E+00  0.000E+00
 -12.059  0.000E+00  0.000E+00
 -12.049  0.000E+00  0.000E+00
 -12.039  0.000E+00  0.000E+00
 -12.029  0.000E+00  0.000E+00
 -12.019  0.000E+00  0.000E+00
 -12.009  0.000E+00  0.000E+00
 -11.999  0.849E-01  0.849E-01
 -11.989  0.257E+00  0.257E+00
 -11.979  0.427E+00  0.427E+00
 -11.969  0.278E+00  0.278E+00
 -11.959  0.291E+00  0.291E+00
 -11.949  0.305E+00  0.305E+00
 -11.939  0.319E+00  0.319E+00
 -11.929  0.332E+00  0.332E+00
 -11.919  0.346E+00  0.346E+00
 -11.909  0.359E+00  0.359E+00
 -11.899  0.352E+00  0.352E+00
 -11.889  0.335E+00  0.335E+00
 -11.879  0.319E+00  0.319E+00
 -11.869  0.313E+00  0.313E+00
 -11.859  0.321E+00  0.321E+00
 -11.849  0.330E+00  0.330E+00
 -11.839  0.340E+00  0.340E+00
 -11.829  0.352E+00  0.352E+00
 -11.819  0.364E+00  0.364E+00
 -11.809  0.378E+00  0.378E+00
 -11.799  0.393E+00  0.393E+00
 -11.789  0.408E+00  0.408E+00
 -11.779  0.425E+00  0.425E+00
 -11.769  0.841E+00  0.841E+00
 -11.759  0.767E+00  0.767E+00
 -11.749  0.668E+00  0.668E+00
 -11.739  0.543E+00  0.543E+00
 -11.729  0.393E+00  0.393E+00
 -11.719  0.246E+00  0.246E+00
 -11.709  0.233E+00  0.233E+00
 -11.699  0.216E+00  0.216E+00
 -11.689  0.201E+00  0.201E+00
 -11.679  0.184E+00  0.184E+00
 -11.669  0.167E+00  0.167E+00
 -11.659  0.149E+00  0.149E+00
 -11.649  0.130E+00  0.130E+00
 -11.639  0.111E+00  0.111E+00
 -11.629  0.981E-01  0.981E-01
 -11.619  0.123E+00  0.123E+00
 -11.609  0.171E+00  0.171E+00
 -11.599  0.375E+00  0.375E+00
 -11.589  0.761E+00  0.761E+00
 -11.579  0.180E+00  0.180E+00
 -11.569  0.185E+00  0.185E+00
 -11.559  0.189E+00  0.189E+00
 -11.549  0.194E+00  0.194E+00
 -11.539  0.199E+00  0.199E+00
 -11.529  0.204E+00  0.204E+00
 -11.519  0.209E+00  0.209E+00
 -11.509  0.215E+00  0.215E+00
 -11.499  0.221E+00  0.221E+00
 -11.489  0.227E+00  0.227E+00
 -11.479  0.234E+00  0.234E+00
 -11.469  0.241E+00  0.241E+00
 -11.459  0.248E+00  0.248E+00
 -11.449  0.256E+00  0.256E+00
 -11.439  0.263E+00  0.263E+00
 -11.429  0.271E+00  0.271E+00
 -11.419  0.279E+00  0.279E+00
 -11.409  0.286E+00  0.286E+00
 -11.399  0.294E+00  0.294E+00
 -11.389  0.302E+00  0.302E+00
 -11.379  0.372E+00  0.372E+00
 -11.369  0.339E+00  0.339E+00
 -11.359  0.310E+00  0.310E+00
 -11.349  0.284E+00  0.284E+00
 -11.339  0.262E+00  0.262E+00
 -11.329  0.249E+00  0.249E+00
 -11.319  0.241E+00  0.241E+00
 -11.309  0.236E+00  0.236E+00
 -11.299  0.231E+00  0.231E+00
 -11.289  0.226E+00  0.226E+00
 -11.279  0.220E+00  0.220E+00
 -11.269  0.213E+00  0.213E+00
 -11.259  0.207E+00  0.207E+00
 -11.249  0.199E+00  0.199E+00
 -11.239  0.192E+00  0.192E+00
 -11.229  0.184E+00  0.184E+00
 -11.219  0.175E+00  0.175E+00
 -11.209  0.166E+00  0.166E+00
 -11.199  0.903E-01  0.903E-01
 -11.189  0.901E-01  0.901E-01
 -11.179  0.895E-01  0.895E-01
 -11.169  0.886E-01  0.886E-01
 -11.159  0.872E-01  0.872E-01
 -11.149  0.855E-01  0.855E-01
 -11.139  0.834E-01  0.834E-01
 -11.129  0.131E+00  0.131E+00
 -11.119  0.191E+00  0.191E+00
 -11.109  0.250E+00  0.250E+00
 -11.099  0.275E+00  0.275E+00
 -11.089  0.292E+00  0.292E+00
 -11.079  0.309E+00  0.309E+00
 -11.069  0.325E+00  0.325E+00
 -11.059  0.340E+00  0.340E+00
 -11.049  0.355E+00  0.355E+00
 -11.039  0.369E+00  0.369E+00
 -11.029  0.382E+00  0.382E+00
 -11.019  0.395E+00  0.395E+00
 -11.009  0.660E+00  0.660E+00
 -10.999  0.616E+00  0.616E+00
 -10.989  0.575E+00  0.575E+00
 -10.979  0.535E+00  0.535E+00
 -10.969  0.498E+00  0.498E+00
 -10.959  0.462E+00  0.462E+00
 -10.949  0.428E+00  0.428E+00
 -10.939  0.396E+00  0.396E+00
 -10.929  0.366E+00  0.366E+00
 -10.919  0.338E+00  0.338E+00
 -10.909  0.312E+00  0.312E+00
 -10.899  0.287E+00  0.287E+00
 -10.889  0.268E+00  0.268E+00
 -10.879  0.256E+00  0.256E+00
 -10.869  0.244E+00  0.244E+00
 -10.859  0.232E+00  0.232E+00
 -10.849  0.221E+00  0.221E+00
 -10.839  0.212E+00  0.212E+00
 -10.829  0.485E+00  0.485E+00
 -10.819  0.430E+00  0.430E+00
 -10.809  0.364E+00  0.364E+00
 -10.799  0.287E+00  0.287E+00
 -10.789  0.200E+00  0.200E+00
 -10.779  0.126E+00  0.126E+00
 -10.769  0.143E+00  0.143E+00
 -10.759  0.161E+00  0.161E+00
 -10.749  0.179E+00  0.179E+00
 -10.739  0.195E+00  0.195E+00
 -10.729  0.210E+00  0.210E+00
 -10.719  0.225E+00  0.225E+00
 -10.709  0.238E+00  0.238E+00
 -10.699  0.250E+00  0.250E+00
 -10.689  0.262E+00  0.262E+00
 -10.679  0.272E+00  0.272E+00
 -10.669  0.217E+00  0.217E+00
 -10.659  0.221E+00  0.221E+00
 -10.649  0.224E+00  0.224E+00
 -10.639  0.228E+00  0.228E+00
 -10.629  0.231E+00  0.231E+00
 -10.619  0.235E+00  0.235E+00
 -10.609  0.238E+00  0.238E+00
 -10.599  0.240E+00  0.240E+00
 -10.589  0.243E+00  0.243E+00
 -10.579  0.245E+00  0.245E+00
 -10.569  0.248E+00  0.248E+00
 -10.559  0.250E+00  0.250E+00
 -10.549  0.252E+00  0.252E+00
 -10.539  0.253E+00  0.253E+00
 -10.529  0.255E+00  0.255E+00
 -10.519  0.256E+00  0.256E+00
 -10.509  0.276E+00  0.276E+00
 -10.499  0.496E+00  0.496E+00
 -10.489  0.113E+01  0.113E+01
 -10.479  0.285E+00  0.285E+00
 -10.469  0.291E+00  0.291E+00
 -10.459  0.298E+00  0.298E+00
 -10.449  0.306E+00  0.306E+00
 -10.439  0.316E+00  0.316E+00
 -10.429  0.327E+00  0.327E+00
 -10.419  0.340E+00  0.340E+00
 -10.409  0.358E+00  0.358E+00
 -10.399  0.374E+00  0.374E+00
 -10.389  0.389E+00  0.389E+00
 -10.379  0.403E+00  0.403E+00
 -10.369  0.416E+00  0.416E+00
 -10.359  0.427E+00  0.427E+00
 -10.349  0.438E+00  0.438E+00
 -10.339  0.447E+00  0.447E+00
 -10.329  0.455E+00  0.455E+00
 -10.319  0.457E+00  0.457E+00
 -10.309  0.458E+00  0.458E+00
 -10.299  0.459E+00  0.459E+00
 -10.289  0.459E+00  0.459E+00
 -10.279  0.460E+00  0.460E+00
 -10.269  0.460E+00  0.460E+00
 -10.259  0.461E+00  0.461E+00
 -10.249  0.461E+00  0.461E+00
 -10.239  0.462E+00  0.462E+00
 -10.229  0.462E+00  0.462E+00
 -10.219  0.462E+00  0.462E+00
 -10.209  0.463E+00  0.463E+00
 -10.199  0.463E+00  0.463E+00
 -10.189  0.464E+00  0.464E+00
 -10.179  0.481E+00  0.481E+00
 -10.169  0.493E+00  0.493E+00
 -10.159  0.499E+00  0.499E+00
 -10.149  0.499E+00  0.499E+00
 -10.139  0.452E+00  0.452E+00
 -10.129  0.215E+00  0.215E+00
 -10.119  0.215E+00  0.215E+00
 -10.109  0.249E+00  0.249E+00
 -10.099  0.349E+00  0.349E+00
 -10.089  0.517E+00  0.517E+00
 -10.079  0.237E+00  0.237E+00
 -10.069  0.268E+00  0.268E+00
 -10.059  0.301E+00  0.301E+00
 -10.049  0.366E+00  0.366E+00
 -10.039  0.343E+00  0.343E+00
 -10.029  0.321E+00  0.321E+00
 -10.019  0.299E+00  0.299E+00
 -10.009  0.275E+00  0.275E+00
  -9.999  0.251E+00  0.251E+00
  -9.989  0.226E+00  0.226E+00
  -9.979  0.200E+00  0.200E+00
  -9.969  0.172E+00  0.172E+00
  -9.959  0.144E+00  0.144E+00
  -9.949  0.114E+00  0.114E+00
  -9.939  0.945E-01  0.945E-01
  -9.929  0.101E+00  0.101E+00
  -9.919  0.109E+00  0.109E+00
  -9.909  0.125E+00  0.125E+00
  -9.899  0.151E+00  0.151E+00
  -9.889  0.187E+00  0.187E+00
  -9.879  0.243E+00  0.243E+00
  -9.869  0.314E+00  0.314E+00
  -9.859  0.398E+00  0.398E+00
  -9.849  0.498E+00  0.498E+00
  -9.839  0.436E+00  0.436E+00
  -9.829  0.509E+00  0.509E+00
  -9.819  0.598E+00  0.598E+00
  -9.809  0.702E+00  0.702E+00
  -9.799  0.822E+00  0.822E+00
  -9.789  0.713E+00  0.713E+00
  -9.779  0.499E-01  0.499E-01
  -9.769  0.639E-02  0.639E-02
  -9.759  0.118E-01  0.118E-01
  -9.749  0.179E-01  0.179E-01
  -9.739  0.311E-01  0.311E-01
  -9.729  0.486E-01  0.486E-01
  -9.719  0.694E-01  0.694E-01
  -9.709  0.931E-01  0.931E-01
  -9.699  0.113E+00  0.113E+00
  -9.689  0.126E+00  0.126E+00
  -9.679  0.134E+00  0.134E+00
  -9.669  0.135E+00  0.135E+00
  -9.659  0.130E+00  0.130E+00
  -9.649  0.119E+00  0.119E+00
  -9.639  0.102E+00  0.102E+00
  -9.629  0.787E-01  0.787E-01
  -9.619  0.492E-01  0.492E-01
  -9.609  0.137E-01  0.137E-01
  -9.599  0.417E-03  0.417E-03
  -9.589  0.503E-03  0.503E-03
  -9.579  0.594E-03  0.594E-03
  -9.569  0.688E-03  0.688E-03
  -9.559  0.220E-02  0.220E-02
  -9.549  0.728E-02  0.728E-02
  -9.539  0.159E-01  0.159E-01
  -9.529  0.282E-01  0.282E-01
  -9.519  0.437E-01  0.437E-01
  -9.509  0.631E-01  0.631E-01
  -9.499  0.859E-01  0.859E-01
  -9.489  0.112E+00  0.112E+00
  -9.479  0.141E+00  0.141E+00
  -9.469  0.174E+00  0.174E+00
  -9.459  0.210E+00  0.210E+00
  -9.449  0.250E+00  0.250E+00
  -9.439  0.294E+00  0.294E+00
  -9.429  0.174E+00  0.174E+00
  -9.419  0.153E+00  0.153E+00
  -9.409  0.134E+00  0.134E+00
  -9.399  0.117E+00  0.117E+00
  -9.389  0.103E+00  0.103E+00
  -9.379  0.911E-01  0.911E-01
  -9.369  0.817E-01  0.817E-01
  -9.359  0.745E-01  0.745E-01
  -9.349  0.696E-01  0.696E-01
  -9.339  0.670E-01  0.670E-01
  -9.329  0.652E-01  0.652E-01
  -9.319  0.633E-01  0.633E-01
  -9.309  0.613E-01  0.613E-01
  -9.299  0.591E-01  0.591E-01
  -9.289  0.574E-01  0.574E-01
  -9.279  0.550E-01  0.550E-01
  -9.269  0.529E-01  0.529E-01
  -9.259  0.516E-01  0.516E-01
  -9.249  0.484E-01  0.484E-01
  -9.239  0.445E-01  0.445E-01
  -9.229  0.408E-01  0.408E-01
  -9.219  0.378E-01  0.378E-01
  -9.209  0.348E-01  0.348E-01
  -9.199  0.316E-01  0.316E-01
  -9.189  0.284E-01  0.284E-01
  -9.179  0.251E-01  0.251E-01
  -9.169  0.217E-01  0.217E-01
  -9.159  0.183E-01  0.183E-01
  -9.149  0.149E-01  0.149E-01
  -9.139  0.114E-01  0.114E-01
  -9.129  0.786E-02  0.786E-02
  -9.119  0.372E-02  0.372E-02
  -9.109  0.291E-02  0.291E-02
  -9.099  0.281E-02  0.281E-02
  -9.089  0.274E-02  0.274E-02
  -9.079  0.271E-02  0.271E-02
  -9.069  0.272E-02  0.272E-02
  -9.059  0.277E-02  0.277E-02
  -9.049  0.285E-02  0.285E-02
  -9.039  0.400E-02  0.400E-02
  -9.029  0.161E-02  0.161E-02
  -9.019  0.182E-02  0.182E-02
  -9.009  0.206E-02  0.206E-02
  -8.999  0.232E-02  0.232E-02
  -8.989  0.261E-02  0.261E-02
  -8.979  0.292E-02  0.292E-02
  -8.969  0.326E-02  0.326E-02
  -8.959  0.363E-02  0.363E-02
  -8.949  0.402E-02  0.402E-02
  -8.939  0.443E-02  0.443E-02
  -8.929  0.627E-02  0.627E-02
  -8.919  0.687E-02  0.687E-02
  -8.909  0.744E-02  0.744E-02
  -8.899  0.799E-02  0.799E-02
  -8.889  0.852E-02  0.852E-02
  -8.879  0.902E-02  0.902E-02
  -8.869  0.949E-02  0.949E-02
  -8.859  0.994E-02  0.994E-02
  -8.849  0.231E-01  0.231E-01
  -8.839  0.220E-01  0.220E-01
  -8.829  0.210E-01  0.210E-01
  -8.819  0.199E-01  0.199E-01
  -8.809  0.188E-01  0.188E-01
  -8.799  0.177E-01  0.177E-01
  -8.789  0.167E-01  0.167E-01
  -8.779  0.156E-01  0.156E-01
  -8.769  0.145E-01  0.145E-01
  -8.759  0.135E-01  0.135E-01
  -8.749  0.124E-01  0.124E-01
  -8.739  0.114E-01  0.114E-01
  -8.729  0.104E-01  0.104E-01
  -8.719  0.937E-02  0.937E-02
  -8.709  0.839E-02  0.839E-02
  -8.699  0.124E-01  0.124E-01
  -8.689  0.355E-01  0.355E-01
  -8.679  0.786E-01  0.786E-01
  -8.669  0.142E+00  0.142E+00
  -8.659  0.225E+00  0.225E+00
  -8.649  0.328E+00  0.328E+00
  -8.639  0.114E+00  0.114E+00
  -8.629  0.110E+00  0.110E+00
  -8.619  0.107E+00  0.107E+00
  -8.609  0.105E+00  0.105E+00
  -8.599  0.103E+00  0.103E+00
  -8.589  0.101E+00  0.101E+00
  -8.579  0.994E-01  0.994E-01
  -8.569  0.984E-01  0.984E-01
  -8.559  0.978E-01  0.978E-01
  -8.549  0.975E-01  0.975E-01
  -8.539  0.976E-01  0.976E-01
  -8.529  0.980E-01  0.980E-01
  -8.519  0.988E-01  0.988E-01
  -8.509  0.100E+00  0.100E+00
  -8.499  0.101E+00  0.101E+00
  -8.489  0.103E+00  0.103E+00
  -8.479  0.111E+00  0.111E+00
  -8.469  0.122E+00  0.122E+00
  -8.459  0.133E+00  0.133E+00
  -8.449  0.144E+00  0.144E+00
  -8.439  0.155E+00  0.155E+00
  -8.429  0.165E+00  0.165E+00
  -8.419  0.176E+00  0.176E+00
  -8.409  0.186E+00  0.186E+00
  -8.399  0.196E+00  0.196E+00
  -8.389  0.206E+00  0.206E+00
  -8.379  0.210E+00  0.210E+00
  -8.369  0.219E+00  0.219E+00
  -8.359  0.236E+00  0.236E+00
  -8.349  0.235E+00  0.235E+00
  -8.339  0.258E+00  0.258E+00
  -8.329  0.277E+00  0.277E+00
  -8.319  0.292E+00  0.292E+00
  -8.309  0.304E+00  0.304E+00
  -8.299  0.294E+00  0.294E+00
  -8.289  0.406E+00  0.406E+00
  -8.279  0.671E+00  0.671E+00
  -8.269  0.264E+00  0.264E+00
  -8.259  0.253E+00  0.253E+00
  -8.249  0.245E+00  0.245E+00
  -8.239  0.241E+00  0.241E+00
  -8.229  0.240E+00  0.240E+00
  -8.219  0.242E+00  0.242E+00
  -8.209  0.268E+00  0.268E+00
  -8.199  0.297E+00  0.297E+00
  -8.189  0.329E+00  0.329E+00
  -8.179  0.362E+00  0.362E+00
  -8.169  0.284E+00  0.284E+00
  -8.159  0.289E+00  0.289E+00
  -8.149  0.292E+00  0.292E+00
  -8.139  0.294E+00  0.294E+00
  -8.129  0.295E+00  0.295E+00
  -8.119  0.294E+00  0.294E+00
  -8.109  0.291E+00  0.291E+00
  -8.099  0.287E+00  0.287E+00
  -8.089  0.282E+00  0.282E+00
  -8.079  0.291E+00  0.291E+00
  -8.069  0.300E+00  0.300E+00
  -8.059  0.305E+00  0.305E+00
  -8.049  0.305E+00  0.305E+00
  -8.039  0.299E+00  0.299E+00
  -8.029  0.285E+00  0.285E+00
  -8.019  0.266E+00  0.266E+00
  -8.009  0.239E+00  0.239E+00
  -7.999  0.207E+00  0.207E+00
  -7.989  0.176E+00  0.176E+00
  -7.979  0.316E+00  0.316E+00
  -7.969  0.247E+00  0.247E+00
  -7.959  0.183E+00  0.183E+00
  -7.949  0.138E+00  0.138E+00
  -7.939  0.110E+00  0.110E+00
  -7.929  0.106E+00  0.106E+00
  -7.919  0.104E+00  0.104E+00
  -7.909  0.101E+00  0.101E+00
  -7.899  0.969E-01  0.969E-01
  -7.889  0.929E-01  0.929E-01
  -7.879  0.884E-01  0.884E-01
  -7.869  0.835E-01  0.835E-01
  -7.859  0.344E+00  0.344E+00
  -7.849  0.308E+00  0.308E+00
  -7.839  0.274E+00  0.274E+00
  -7.829  0.241E+00  0.241E+00
  -7.819  0.209E+00  0.209E+00
  -7.809  0.184E+00  0.184E+00
  -7.799  0.166E+00  0.166E+00
  -7.789  0.151E+00  0.151E+00
  -7.779  0.137E+00  0.137E+00
  -7.769  0.126E+00  0.126E+00
  -7.759  0.118E+00  0.118E+00
  -7.749  0.111E+00  0.111E+00
  -7.739  0.107E+00  0.107E+00
  -7.729  0.103E+00  0.103E+00
  -7.719  0.985E-01  0.985E-01
  -7.709  0.940E-01  0.940E-01
  -7.699  0.893E-01  0.893E-01
  -7.689  0.845E-01  0.845E-01
  -7.679  0.794E-01  0.794E-01
  -7.669  0.741E-01  0.741E-01
  -7.659  0.685E-01  0.685E-01
  -7.649  0.634E-01  0.634E-01
  -7.639  0.753E-01  0.753E-01
  -7.629  0.113E+00  0.113E+00
  -7.619  0.240E+00  0.240E+00
  -7.609  0.479E+00  0.479E+00
  -7.599  0.817E+00  0.817E+00
  -7.589  0.103E+00  0.103E+00
  -7.579  0.105E+00  0.105E+00
  -7.569  0.106E+00  0.106E+00
  -7.559  0.108E+00  0.108E+00
  -7.549  0.110E+00  0.110E+00
  -7.539  0.112E+00  0.112E+00
  -7.529  0.979E-01  0.979E-01
  -7.519  0.100E+00  0.100E+00
  -7.509  0.103E+00  0.103E+00
  -7.499  0.106E+00  0.106E+00
  -7.489  0.110E+00  0.110E+00
  -7.479  0.113E+00  0.113E+00
  -7.469  0.117E+00  0.117E+00
  -7.459  0.122E+00  0.122E+00
  -7.449  0.126E+00  0.126E+00
  -7.439  0.131E+00  0.131E+00
  -7.429  0.136E+00  0.136E+00
  -7.419  0.715E+00  0.715E+00
  -7.409  0.578E+00  0.578E+00
  -7.399  0.493E+00  0.493E+00
  -7.389  0.441E+00  0.441E+00
  -7.379  0.365E+00  0.365E+00
  -7.369  0.259E+00  0.259E+00
  -7.359  0.125E+00  0.125E+00
  -7.349  0.943E-01  0.943E-01
  -7.339  0.870E-01  0.870E-01
  -7.329  0.808E-01  0.808E-01
  -7.319  0.758E-01  0.758E-01
  -7.309  0.718E-01  0.718E-01
  -7.299  0.690E-01  0.690E-01
  -7.289  0.673E-01  0.673E-01
  -7.279  0.669E-01  0.669E-01
  -7.269  0.679E-01  0.679E-01
  -7.259  0.685E-01  0.685E-01
  -7.249  0.692E-01  0.692E-01
  -7.239  0.752E-01  0.752E-01
  -7.229  0.735E-01  0.735E-01
  -7.219  0.721E-01  0.721E-01
  -7.209  0.711E-01  0.711E-01
  -7.199  0.705E-01  0.705E-01
  -7.189  0.704E-01  0.704E-01
  -7.179  0.706E-01  0.706E-01
  -7.169  0.713E-01  0.713E-01
  -7.159  0.724E-01  0.724E-01
  -7.149  0.740E-01  0.740E-01
  -7.139  0.759E-01  0.759E-01
  -7.129  0.783E-01  0.783E-01
  -7.119  0.811E-01  0.811E-01
  -7.109  0.843E-01  0.843E-01
  -7.099  0.879E-01  0.879E-01
  -7.089  0.919E-01  0.919E-01
  -7.079  0.964E-01  0.964E-01
  -7.069  0.101E+00  0.101E+00
  -7.059  0.107E+00  0.107E+00
  -7.049  0.112E+00  0.112E+00
  -7.039  0.118E+00  0.118E+00
  -7.029  0.125E+00  0.125E+00
  -7.019  0.132E+00  0.132E+00
  -7.009  0.260E+00  0.260E+00
  -6.999  0.182E+00  0.182E+00
  -6.989  0.318E+00  0.318E+00
  -6.979  0.237E+00  0.237E+00
  -6.969  0.185E+00  0.185E+00
  -6.959  0.186E+00  0.186E+00
  -6.949  0.181E+00  0.181E+00
  -6.939  0.167E+00  0.167E+00
  -6.929  0.147E+00  0.147E+00
  -6.919  0.118E+00  0.118E+00
  -6.909  0.819E-01  0.819E-01
  -6.899  0.468E-01  0.468E-01
  -6.889  0.407E-01  0.407E-01
  -6.879  0.412E-01  0.412E-01
  -6.869  0.416E-01  0.416E-01
  -6.859  0.421E-01  0.421E-01
  -6.849  0.277E+01  0.277E+01
  -6.839  0.810E-01  0.810E-01
  -6.829  0.687E-01  0.687E-01
  -6.819  0.583E-01  0.583E-01
  -6.809  0.459E-01  0.459E-01
  -6.799  0.364E-01  0.364E-01
  -6.789  0.279E-01  0.279E-01
  -6.779  0.207E-01  0.207E-01
  -6.769  0.145E-01  0.145E-01
  -6.759  0.956E-02  0.956E-02
  -6.749  0.571E-02  0.571E-02
  -6.739  0.300E-02  0.300E-02
  -6.729  0.143E-02  0.143E-02
  -6.719  0.976E-03  0.976E-03
  -6.709  0.898E-03  0.898E-03
  -6.699  0.122E-02  0.122E-02
  -6.689  0.148E-02  0.148E-02
  -6.679  0.165E-02  0.165E-02
  -6.669  0.248E-02  0.248E-02
  -6.659  0.154E-01  0.154E-01
  -6.649  0.442E-01  0.442E-01
  -6.639  0.890E-01  0.890E-01
  -6.629  0.150E+00  0.150E+00
  -6.619  0.226E+00  0.226E+00
  -6.609  0.225E+00  0.225E+00
  -6.599  0.181E+00  0.181E+00
  -6.589  0.145E+00  0.145E+00
  -6.579  0.117E+00  0.117E+00
  -6.569  0.976E-01  0.976E-01
  -6.559  0.863E-01  0.863E-01
  -6.549  0.831E-01  0.831E-01
  -6.539  0.890E-01  0.890E-01
  -6.529  0.120E+00  0.120E+00
  -6.519  0.180E+00  0.180E+00
  -6.509  0.823E-01  0.823E-01
  -6.499  0.831E-01  0.831E-01
  -6.489  0.839E-01  0.839E-01
  -6.479  0.848E-01  0.848E-01
  -6.469  0.858E-01  0.858E-01
  -6.459  0.869E-01  0.869E-01
  -6.449  0.880E-01  0.880E-01
  -6.439  0.892E-01  0.892E-01
  -6.429  0.905E-01  0.905E-01
  -6.419  0.918E-01  0.918E-01
  -6.409  0.932E-01  0.932E-01
  -6.399  0.947E-01  0.947E-01
  -6.389  0.963E-01  0.963E-01
  -6.379  0.114E+00  0.114E+00
  -6.369  0.154E+00  0.154E+00
  -6.359  0.187E+00  0.187E+00
  -6.349  0.213E+00  0.213E+00
  -6.339  0.232E+00  0.232E+00
  -6.329  0.245E+00  0.245E+00
  -6.319  0.314E+00  0.314E+00
  -6.309  0.412E+00  0.412E+00
  -6.299  0.304E-01  0.304E-01
  -6.289  0.318E-01  0.318E-01
  -6.279  0.337E-01  0.337E-01
  -6.269  0.357E-01  0.357E-01
  -6.259  0.378E-01  0.378E-01
  -6.249  0.400E-01  0.400E-01
  -6.239  0.406E-01  0.406E-01
  -6.229  0.425E-01  0.425E-01
  -6.219  0.443E-01  0.443E-01
  -6.209  0.462E-01  0.462E-01
  -6.199  0.480E-01  0.480E-01
  -6.189  0.531E-01  0.531E-01
  -6.179  0.546E-01  0.546E-01
  -6.169  0.560E-01  0.560E-01
  -6.159  0.574E-01  0.574E-01
  -6.149  0.587E-01  0.587E-01
  -6.139  0.599E-01  0.599E-01
  -6.129  0.613E-01  0.613E-01
  -6.119  0.629E-01  0.629E-01
  -6.109  0.647E-01  0.647E-01
  -6.099  0.667E-01  0.667E-01
  -6.089  0.690E-01  0.690E-01
  -6.079  0.706E-01  0.706E-01
  -6.069  0.718E-01  0.718E-01
  -6.059  0.735E-01  0.735E-01
  -6.049  0.831E-01  0.831E-01
  -6.039  0.103E+00  0.103E+00
  -6.029  0.111E+00  0.111E+00
  -6.019  0.113E+00  0.113E+00
  -6.009  0.115E+00  0.115E+00
  -5.999  0.116E+00  0.116E+00
  -5.989  0.117E+00  0.117E+00
  -5.979  0.115E+00  0.115E+00
  -5.969  0.109E+00  0.109E+00
  -5.959  0.104E+00  0.104E+00
  -5.949  0.100E+00  0.100E+00
  -5.939  0.976E-01  0.976E-01
  -5.929  0.956E-01  0.956E-01
  -5.919  0.941E-01  0.941E-01
  -5.909  0.379E+00  0.379E+00
  -5.899  0.709E-01  0.709E-01
  -5.889  0.688E-01  0.688E-01
  -5.879  0.667E-01  0.667E-01
  -5.869  0.620E-01  0.620E-01
  -5.859  0.561E-01  0.561E-01
  -5.849  0.499E-01  0.499E-01
  -5.839  0.439E-01  0.439E-01
  -5.829  0.380E-01  0.380E-01
  -5.819  0.324E-01  0.324E-01
  -5.809  0.272E-01  0.272E-01
  -5.799  0.225E-01  0.225E-01
  -5.789  0.183E-01  0.183E-01
  -5.779  0.145E-01  0.145E-01
  -5.769  0.111E-01  0.111E-01
  -5.759  0.823E-02  0.823E-02
  -5.749  0.579E-02  0.579E-02
  -5.739  0.380E-02  0.380E-02
  -5.729  0.313E-02  0.313E-02
  -5.719  0.247E-02  0.247E-02
  -5.709  0.174E-02  0.174E-02
  -5.699  0.951E-03  0.951E-03
  -5.689  0.941E-03  0.941E-03
  -5.679  0.952E-03  0.952E-03
  -5.669  0.972E-03  0.972E-03
  -5.659  0.980E-03  0.980E-03
  -5.649  0.964E-03  0.964E-03
  -5.639  0.952E-03  0.952E-03
  -5.629  0.943E-03  0.943E-03
  -5.619  0.937E-03  0.937E-03
  -5.609  0.934E-03  0.934E-03
  -5.599  0.934E-03  0.934E-03
  -5.589  0.937E-03  0.937E-03
  -5.579  0.943E-03  0.943E-03
  -5.569  0.914E-03  0.914E-03
  -5.559  0.925E-03  0.925E-03
  -5.549  0.935E-03  0.935E-03
  -5.539  0.946E-03  0.946E-03
  -5.529  0.957E-03  0.957E-03
  -5.519  0.968E-03  0.968E-03
  -5.509  0.979E-03  0.979E-03
  -5.499  0.990E-03  0.990E-03
  -5.489  0.100E-02  0.100E-02
  -5.479  0.101E-02  0.101E-02
  -5.469  0.102E-02  0.102E-02
  -5.459  0.104E-02  0.104E-02
  -5.449  0.105E-02  0.105E-02
  -5.439  0.106E-02  0.106E-02
  -5.429  0.107E-02  0.107E-02
  -5.419  0.108E-02  0.108E-02
  -5.409  0.110E-02  0.110E-02
  -5.399  0.483E-02  0.483E-02
  -5.389  0.188E-02  0.188E-02
  -5.379  0.484E-03  0.484E-03
  -5.369  0.604E-03  0.604E-03
  -5.359  0.134E-02  0.134E-02
  -5.349  0.279E-02  0.279E-02
  -5.339  0.496E-02  0.496E-02
  -5.329  0.786E-02  0.786E-02
  -5.319  0.115E-01  0.115E-01
  -5.309  0.158E-01  0.158E-01
  -5.299  0.209E-01  0.209E-01
  -5.289  0.267E-01  0.267E-01
  -5.279  0.332E-01  0.332E-01
  -5.269  0.852E-01  0.852E-01
  -5.259  0.207E+00  0.207E+00
  -5.249  0.249E+00  0.249E+00
  -5.239  0.238E+00  0.238E+00
  -5.229  0.255E+00  0.255E+00
  -5.219  0.296E+00  0.296E+00
  -5.209  0.200E+00  0.200E+00
  -5.199  0.144E+00  0.144E+00
  -5.189  0.138E+00  0.138E+00
  -5.179  0.180E+00  0.180E+00
  -5.169  0.295E+00  0.295E+00
  -5.159  0.185E+00  0.185E+00
  -5.149  0.880E-01  0.880E-01
  -5.139  0.861E-01  0.861E-01
  -5.129  0.824E-01  0.824E-01
  -5.119  0.795E-01  0.795E-01
  -5.109  0.778E-01  0.778E-01
  -5.099  0.774E-01  0.774E-01
  -5.089  0.781E-01  0.781E-01
  -5.079  0.821E-01  0.821E-01
  -5.069  0.830E-01  0.830E-01
  -5.059  0.840E-01  0.840E-01
  -5.049  0.850E-01  0.850E-01
  -5.039  0.856E-01  0.856E-01
  -5.029  0.858E-01  0.858E-01
  -5.019  0.856E-01  0.856E-01
  -5.009  0.901E-01  0.901E-01
  -4.999  0.106E+00  0.106E+00
  -4.989  0.135E+00  0.135E+00
  -4.979  0.176E+00  0.176E+00
  -4.969  0.229E+00  0.229E+00
  -4.959  0.294E+00  0.294E+00
  -4.949  0.189E-01  0.189E-01
  -4.939  0.199E-01  0.199E-01
  -4.929  0.186E-01  0.186E-01
  -4.919  0.112E-01  0.112E-01
  -4.909  0.567E-02  0.567E-02
  -4.899  0.208E-02  0.208E-02
  -4.889  0.276E+00  0.276E+00
  -4.879  0.521E+00  0.521E+00
  -4.869  0.188E+00  0.188E+00
  -4.859  0.581E-02  0.581E-02
  -4.849  0.773E-02  0.773E-02
  -4.839  0.922E-02  0.922E-02
  -4.829  0.103E-01  0.103E-01
  -4.819  0.110E-01  0.110E-01
  -4.809  0.114E-01  0.114E-01
  -4.799  0.111E-01  0.111E-01
  -4.789  0.173E-01  0.173E-01
  -4.779  0.251E-01  0.251E-01
  -4.769  0.342E-01  0.342E-01
  -4.759  0.251E-01  0.251E-01
  -4.749  0.299E-01  0.299E-01
  -4.739  0.354E-01  0.354E-01
  -4.729  0.414E-01  0.414E-01
  -4.719  0.480E-01  0.480E-01
  -4.709  0.551E-01  0.551E-01
  -4.699  0.628E-01  0.628E-01
  -4.689  0.827E-01  0.827E-01
  -4.679  0.124E+00  0.124E+00
  -4.669  0.150E+00  0.150E+00
  -4.659  0.151E+00  0.151E+00
  -4.649  0.127E+00  0.127E+00
  -4.639  0.782E-01  0.782E-01
  -4.629  0.173E-01  0.173E-01
  -4.619  0.306E-02  0.306E-02
  -4.609  0.122E-01  0.122E-01
  -4.599  0.196E-01  0.196E-01
  -4.589  0.678E-02  0.678E-02
  -4.579  0.694E-02  0.694E-02
  -4.569  0.709E-02  0.709E-02
  -4.559  0.791E-02  0.791E-02
  -4.549  0.106E-01  0.106E-01
  -4.539  0.152E-01  0.152E-01
  -4.529  0.218E-01  0.218E-01
  -4.519  0.304E-01  0.304E-01
  -4.509  0.424E-01  0.424E-01
  -4.499  0.554E-01  0.554E-01
  -4.489  0.692E-01  0.692E-01
  -4.479  0.823E-01  0.823E-01
  -4.469  0.935E-01  0.935E-01
  -4.459  0.111E+00  0.111E+00
  -4.449  0.132E+00  0.132E+00
  -4.439  0.232E+00  0.232E+00
  -4.429  0.178E+00  0.178E+00
  -4.419  0.137E+00  0.137E+00
  -4.409  0.108E+00  0.108E+00
  -4.399  0.911E-01  0.911E-01
  -4.389  0.840E-01  0.840E-01
  -4.379  0.779E-01  0.779E-01
  -4.369  0.720E-01  0.720E-01
  -4.359  0.722E-01  0.722E-01
  -4.349  0.716E-01  0.716E-01
  -4.339  0.706E-01  0.706E-01
  -4.329  0.682E-01  0.682E-01
  -4.319  0.662E-01  0.662E-01
  -4.309  0.657E-01  0.657E-01
  -4.299  0.638E-01  0.638E-01
  -4.289  0.588E-01  0.588E-01
  -4.279  0.522E-01  0.522E-01
  -4.269  0.438E-01  0.438E-01
  -4.259  0.335E-01  0.335E-01
  -4.249  0.274E-01  0.274E-01
  -4.239  0.241E-01  0.241E-01
  -4.229  0.583E-01  0.583E-01
  -4.219  0.502E-01  0.502E-01
  -4.209  0.437E-01  0.437E-01
  -4.199  0.393E-01  0.393E-01
  -4.189  0.388E-01  0.388E-01
  -4.179  0.426E-01  0.426E-01
  -4.169  0.507E-01  0.507E-01
  -4.159  0.631E-01  0.631E-01
  -4.149  0.798E-01  0.798E-01
  -4.139  0.978E-01  0.978E-01
  -4.129  0.119E+00  0.119E+00
  -4.119  0.146E+00  0.146E+00
  -4.109  0.171E+00  0.171E+00
  -4.099  0.789E-01  0.789E-01
  -4.089  0.817E-01  0.817E-01
  -4.079  0.847E-01  0.847E-01
  -4.069  0.870E-01  0.870E-01
  -4.059  0.904E-01  0.904E-01
  -4.049  0.939E-01  0.939E-01
  -4.039  0.976E-01  0.976E-01
  -4.029  0.101E+00  0.101E+00
  -4.019  0.105E+00  0.105E+00
  -4.009  0.110E+00  0.110E+00
  -3.999  0.114E+00  0.114E+00
  -3.989  0.116E+00  0.116E+00
  -3.979  0.922E-01  0.922E-01
  -3.969  0.711E-01  0.711E-01
  -3.959  0.576E-01  0.576E-01
  -3.949  0.851E-01  0.851E-01
  -3.939  0.101E+00  0.101E+00
  -3.929  0.200E-01  0.200E-01
  -3.919  0.134E-01  0.134E-01
  -3.909  0.967E-02  0.967E-02
  -3.899  0.868E-02  0.868E-02
  -3.889  0.878E-02  0.878E-02
  -3.879  0.890E-02  0.890E-02
  -3.869  0.905E-02  0.905E-02
  -3.859  0.922E-02  0.922E-02
  -3.849  0.936E-02  0.936E-02
  -3.839  0.929E-02  0.929E-02
  -3.829  0.924E-02  0.924E-02
  -3.819  0.925E-02  0.925E-02
  -3.809  0.225E-02  0.225E-02
  -3.799  0.221E-02  0.221E-02
  -3.789  0.284E-02  0.284E-02
  -3.779  0.421E-02  0.421E-02
  -3.769  0.589E-02  0.589E-02
  -3.759  0.790E-02  0.790E-02
  -3.749  0.104E-01  0.104E-01
  -3.739  0.116E-01  0.116E-01
  -3.729  0.736E-02  0.736E-02
  -3.719  0.719E-02  0.719E-02
  -3.709  0.726E-02  0.726E-02
  -3.699  0.731E-02  0.731E-02
  -3.689  0.761E-02  0.761E-02
  -3.679  0.836E-02  0.836E-02
  -3.669  0.960E-02  0.960E-02
  -3.659  0.113E-01  0.113E-01
  -3.649  0.135E-01  0.135E-01
  -3.639  0.162E-01  0.162E-01
  -3.629  0.593E-02  0.593E-02
  -3.619  0.598E-02  0.598E-02
  -3.609  0.626E-02  0.626E-02
  -3.599  0.657E-02  0.657E-02
  -3.589  0.691E-02  0.691E-02
  -3.579  0.729E-02  0.729E-02
  -3.569  0.769E-02  0.769E-02
  -3.559  0.813E-02  0.813E-02
  -3.549  0.860E-02  0.860E-02
  -3.539  0.948E-02  0.948E-02
  -3.529  0.110E-01  0.110E-01
  -3.519  0.133E-01  0.133E-01
  -3.509  0.167E-01  0.167E-01
  -3.499  0.212E-01  0.212E-01
  -3.489  0.148E-01  0.148E-01
  -3.479  0.171E-01  0.171E-01
  -3.469  0.122E-01  0.122E-01
  -3.459  0.123E-01  0.123E-01
  -3.449  0.124E-01  0.124E-01
  -3.439  0.125E-01  0.125E-01
  -3.429  0.124E-01  0.124E-01
  -3.419  0.123E-01  0.123E-01
  -3.409  0.121E-01  0.121E-01
  -3.399  0.119E-01  0.119E-01
  -3.389  0.116E-01  0.116E-01
  -3.379  0.112E-01  0.112E-01
  -3.369  0.108E-01  0.108E-01
  -3.359  0.104E-01  0.104E-01
  -3.349  0.104E-01  0.104E-01
  -3.339  0.107E-01  0.107E-01
  -3.329  0.110E-01  0.110E-01
  -3.319  0.113E-01  0.113E-01
  -3.309  0.115E-01  0.115E-01
  -3.299  0.117E-01  0.117E-01
  -3.289  0.119E-01  0.119E-01
  -3.279  0.120E-01  0.120E-01
  -3.269  0.121E-01  0.121E-01
  -3.259  0.121E-01  0.121E-01
  -3.249  0.122E-01  0.122E-01
  -3.239  0.121E-01  0.121E-01
  -3.229  0.120E-01  0.120E-01
  -3.219  0.119E-01  0.119E-01
  -3.209  0.117E-01  0.117E-01
  -3.199  0.114E-01  0.114E-01
  -3.189  0.111E-01  0.111E-01
  -3.179  0.107E-01  0.107E-01
  -3.169  0.103E-01  0.103E-01
  -3.159  0.990E-02  0.990E-02
  -3.149  0.943E-02  0.943E-02
  -3.139  0.929E-02  0.929E-02
  -3.129  0.923E-02  0.923E-02
  -3.119  0.920E-02  0.920E-02
  -3.109  0.926E-02  0.926E-02
  -3.099  0.935E-02  0.935E-02
  -3.089  0.946E-02  0.946E-02
  -3.079  0.960E-02  0.960E-02
  -3.069  0.976E-02  0.976E-02
  -3.059  0.956E-02  0.956E-02
  -3.049  0.923E-02  0.923E-02
  -3.039  0.898E-02  0.898E-02
  -3.029  0.124E-01  0.124E-01
  -3.019  0.125E-01  0.125E-01
  -3.009  0.121E-01  0.121E-01
  -2.999  0.120E-01  0.120E-01
  -2.989  0.119E-01  0.119E-01
  -2.979  0.118E-01  0.118E-01
  -2.969  0.117E-01  0.117E-01
  -2.959  0.116E-01  0.116E-01
  -2.949  0.116E-01  0.116E-01
  -2.939  0.118E-01  0.118E-01
  -2.929  0.120E-01  0.120E-01
  -2.919  0.121E-01  0.121E-01
  -2.909  0.182E-01  0.182E-01
  -2.899  0.152E-01  0.152E-01
  -2.889  0.129E-01  0.129E-01
  -2.879  0.113E-01  0.113E-01
  -2.869  0.874E-02  0.874E-02
  -2.859  0.646E-02  0.646E-02
  -2.849  0.587E-02  0.587E-02
  -2.839  0.534E-02  0.534E-02
  -2.829  0.487E-02  0.487E-02
  -2.819  0.440E-02  0.440E-02
  -2.809  0.395E-02  0.395E-02
  -2.799  0.423E-02  0.423E-02
  -2.789  0.233E-01  0.233E-01
  -2.779  0.343E-02  0.343E-02
  -2.769  0.454E-02  0.454E-02
  -2.759  0.561E-02  0.561E-02
  -2.749  0.674E-02  0.674E-02
  -2.739  0.799E-02  0.799E-02
  -2.729  0.936E-02  0.936E-02
  -2.719  0.109E-01  0.109E-01
  -2.709  0.335E-01  0.335E-01
  -2.699  0.177E-01  0.177E-01
  -2.689  0.195E-01  0.195E-01
  -2.679  0.228E-01  0.228E-01
  -2.669  0.269E-01  0.269E-01
  -2.659  0.392E-01  0.392E-01
  -2.649  0.417E-01  0.417E-01
  -2.639  0.541E-01  0.541E-01
  -2.629  0.542E-01  0.542E-01
  -2.619  0.225E-01  0.225E-01
  -2.609  0.978E-02  0.978E-02
  -2.599  0.777E-02  0.777E-02
  -2.589  0.686E-02  0.686E-02
  -2.579  0.663E-02  0.663E-02
  -2.569  0.679E-02  0.679E-02
  -2.559  0.191E-01  0.191E-01
  -2.549  0.243E-02  0.243E-02
  -2.539  0.530E-02  0.530E-02
  -2.529  0.609E-02  0.609E-02
  -2.519  0.695E-02  0.695E-02
  -2.509  0.134E-01  0.134E-01
  -2.499  0.145E-01  0.145E-01
  -2.489  0.148E-01  0.148E-01
  -2.479  0.143E-01  0.143E-01
  -2.469  0.129E-01  0.129E-01
  -2.459  0.107E-01  0.107E-01
  -2.449  0.767E-02  0.767E-02
  -2.439  0.401E-02  0.401E-02
  -2.429  0.320E-02  0.320E-02
  -2.419  0.618E-02  0.618E-02
  -2.409  0.159E-01  0.159E-01
  -2.399  0.265E-01  0.265E-01
  -2.389  0.527E-01  0.527E-01
  -2.379  0.288E-01  0.288E-01
  -2.369  0.145E-01  0.145E-01
  -2.359  0.739E-02  0.739E-02
  -2.349  0.706E-01  0.706E-01
  -2.339  0.574E-01  0.574E-01
  -2.329  0.425E-01  0.425E-01
  -2.319  0.231E-01  0.231E-01
  -2.309  0.206E-01  0.206E-01
  -2.299  0.141E-01  0.141E-01
  -2.289  0.814E-02  0.814E-02
  -2.279  0.778E-02  0.778E-02
  -2.269  0.791E-02  0.791E-02
  -2.259  0.812E-02  0.812E-02
  -2.249  0.101E-01  0.101E-01
  -2.239  0.121E-01  0.121E-01
  -2.229  0.141E-01  0.141E-01
  -2.219  0.161E-01  0.161E-01
  -2.209  0.180E-01  0.180E-01
  -2.199  0.198E-01  0.198E-01
  -2.189  0.215E-01  0.215E-01
  -2.179  0.379E-01  0.379E-01
  -2.169  0.162E-01  0.162E-01
  -2.159  0.249E-01  0.249E-01
  -2.149  0.401E-01  0.401E-01
  -2.139  0.556E-01  0.556E-01
  -2.129  0.691E-01  0.691E-01
  -2.119  0.619E-01  0.619E-01
  -2.109  0.646E-01  0.646E-01
  -2.099  0.881E-01  0.881E-01
  -2.089  0.104E-01  0.104E-01
  -2.079  0.106E-01  0.106E-01
  -2.069  0.107E-01  0.107E-01
  -2.059  0.109E-01  0.109E-01
  -2.049  0.117E-01  0.117E-01
  -2.039  0.123E-01  0.123E-01
  -2.029  0.129E-01  0.129E-01
  -2.019  0.146E-01  0.146E-01
  -2.009  0.153E-01  0.153E-01
  -1.999  0.160E-01  0.160E-01
  -1.989  0.167E-01  0.167E-01
  -1.979  0.175E-01  0.175E-01
  -1.969  0.182E-01  0.182E-01
  -1.959  0.190E-01  0.190E-01
  -1.949  0.198E-01  0.198E-01
  -1.939  0.206E-01  0.206E-01
  -1.929  0.214E-01  0.214E-01
  -1.919  0.223E-01  0.223E-01
  -1.909  0.241E-01  0.241E-01
  -1.899  0.288E-01  0.288E-01
  -1.889  0.362E-01  0.362E-01
  -1.879  0.464E-01  0.464E-01
  -1.869  0.447E-01  0.447E-01
  -1.859  0.121E+00  0.121E+00
  -1.849  0.151E+00  0.151E+00
  -1.839  0.385E+00  0.385E+00
  -1.829  0.917E-01  0.917E-01
  -1.819  0.834E-01  0.834E-01
  -1.809  0.700E-01  0.700E-01
  -1.799  0.532E-01  0.532E-01
  -1.789  0.534E-01  0.534E-01
  -1.779  0.533E-01  0.533E-01
  -1.769  0.528E-01  0.528E-01
  -1.759  0.519E-01  0.519E-01
  -1.749  0.507E-01  0.507E-01
  -1.739  0.491E-01  0.491E-01
  -1.729  0.471E-01  0.471E-01
  -1.719  0.448E-01  0.448E-01
  -1.709  0.421E-01  0.421E-01
  -1.699  0.428E-01  0.428E-01
  -1.689  0.444E-01  0.444E-01
  -1.679  0.460E-01  0.460E-01
  -1.669  0.478E-01  0.478E-01
  -1.659  0.496E-01  0.496E-01
  -1.649  0.514E-01  0.514E-01
  -1.639  0.391E-01  0.391E-01
  -1.629  0.317E-01  0.317E-01
  -1.619  0.270E-01  0.270E-01
  -1.609  0.260E-01  0.260E-01
  -1.599  0.287E-01  0.287E-01
  -1.589  0.371E-01  0.371E-01
  -1.579  0.894E-01  0.894E-01
  -1.569  0.161E-01  0.161E-01
  -1.559  0.126E-01  0.126E-01
  -1.549  0.192E+00  0.192E+00
  -1.539  0.687E-01  0.687E-01
  -1.529  0.671E-01  0.671E-01
  -1.519  0.642E-01  0.642E-01
  -1.509  0.599E-01  0.599E-01
  -1.499  0.543E-01  0.543E-01
  -1.489  0.473E-01  0.473E-01
  -1.479  0.390E-01  0.390E-01
  -1.469  0.294E-01  0.294E-01
  -1.459  0.190E-01  0.190E-01
  -1.449  0.189E-01  0.189E-01
  -1.439  0.190E-01  0.190E-01
  -1.429  0.195E-01  0.195E-01
  -1.419  0.202E-01  0.202E-01
  -1.409  0.212E-01  0.212E-01
  -1.399  0.225E-01  0.225E-01
  -1.389  0.241E-01  0.241E-01
  -1.379  0.259E-01  0.259E-01
  -1.369  0.280E-01  0.280E-01
  -1.359  0.304E-01  0.304E-01
  -1.349  0.330E-01  0.330E-01
  -1.339  0.360E-01  0.360E-01
  -1.329  0.392E-01  0.392E-01
  -1.319  0.210E-01  0.210E-01
  -1.309  0.206E-01  0.206E-01
  -1.299  0.202E-01  0.202E-01
  -1.289  0.197E-01  0.197E-01
  -1.279  0.192E-01  0.192E-01
  -1.269  0.186E-01  0.186E-01
  -1.259  0.180E-01  0.180E-01
  -1.249  0.176E-01  0.176E-01
  -1.239  0.172E-01  0.172E-01
  -1.229  0.167E-01  0.167E-01
  -1.219  0.161E-01  0.161E-01
  -1.209  0.155E-01  0.155E-01
  -1.199  0.149E-01  0.149E-01
  -1.189  0.143E-01  0.143E-01
  -1.179  0.137E-01  0.137E-01
  -1.169  0.132E-01  0.132E-01
  -1.159  0.126E-01  0.126E-01
  -1.149  0.121E-01  0.121E-01
  -1.139  0.116E-01  0.116E-01
  -1.129  0.111E-01  0.111E-01
  -1.119  0.105E-01  0.105E-01
  -1.109  0.100E-01  0.100E-01
  -1.099  0.971E-02  0.971E-02
  -1.089  0.952E-02  0.952E-02
  -1.079  0.932E-02  0.932E-02
  -1.069  0.909E-02  0.909E-02
  -1.059  0.884E-02  0.884E-02
  -1.049  0.857E-02  0.857E-02
  -1.039  0.828E-02  0.828E-02
  -1.029  0.797E-02  0.797E-02
  -1.019  0.764E-02  0.764E-02
  -1.009  0.729E-02  0.729E-02
  -0.999  0.691E-02  0.691E-02
  -0.989  0.651E-02  0.651E-02
  -0.979  0.610E-02  0.610E-02
  -0.969  0.566E-02  0.566E-02
  -0.959  0.520E-02  0.520E-02
  -0.949  0.525E-02  0.525E-02
  -0.939  0.480E-02  0.480E-02
  -0.929  0.437E-02  0.437E-02
  -0.919  0.396E-02  0.396E-02
  -0.909  0.358E-02  0.358E-02
  -0.899  0.321E-02  0.321E-02
  -0.889  0.286E-02  0.286E-02
  -0.879  0.253E-02  0.253E-02
  -0.869  0.222E-02  0.222E-02
  -0.859  0.193E-02  0.193E-02
  -0.849  0.166E-02  0.166E-02
  -0.839  0.142E-02  0.142E-02
  -0.829  0.119E-02  0.119E-02
  -0.819  0.978E-03  0.978E-03
  -0.809  0.790E-03  0.790E-03
  -0.799  0.622E-03  0.622E-03
  -0.789  0.474E-03  0.474E-03
  -0.779  0.346E-03  0.346E-03
  -0.769  0.238E-03  0.238E-03
  -0.759  0.151E-03  0.151E-03
  -0.749  0.829E-04  0.829E-04
  -0.739  0.352E-04  0.352E-04
  -0.729  0.766E-05  0.766E-05
  -0.719  0.000E+00  0.000E+00
  -0.709  0.000E+00  0.000E+00
  -0.699  0.000E+00  0.000E+00
  -0.689  0.000E+00  0.000E+00
  -0.679  0.000E+00  0.000E+00
  -0.669  0.000E+00  0.000E+00
  -0.659  0.000E+00  0.000E+00
  -0.649  0.000E+00  0.000E+00
  -0.639  0.000E+00  0.000E+00
  -0.629  0.000E+00  0.000E+00
  -0.619  0.827E-04  0.827E-04
  -0.609  0.489E-03  0.489E-03
  -0.599  0.873E-03  0.873E-03
  -0.589  0.123E-02  0.123E-02
  -0.579  0.157E-02  0.157E-02
  -0.569  0.226E-02  0.226E-02
  -0.559  0.300E-02  0.300E-02
  -0.549  0.371E-02  0.371E-02
  -0.539  0.439E-02  0.439E-02
  -0.529  0.503E-02  0.503E-02
  -0.519  0.564E-02  0.564E-02
  -0.509  0.621E-02  0.621E-02
  -0.499  0.675E-02  0.675E-02
  -0.489  0.725E-02  0.725E-02
  -0.479  0.772E-02  0.772E-02
  -0.469  0.815E-02  0.815E-02
  -0.459  0.855E-02  0.855E-02
  -0.449  0.892E-02  0.892E-02
  -0.439  0.925E-02  0.925E-02
  -0.429  0.955E-02  0.955E-02
  -0.419  0.161E-01  0.161E-01
  -0.409  0.153E-01  0.153E-01
  -0.399  0.145E-01  0.145E-01
  -0.389  0.139E-01  0.139E-01
  -0.379  0.134E-01  0.134E-01
  -0.369  0.130E-01  0.130E-01
  -0.359  0.132E-01  0.132E-01
  -0.349  0.152E-01  0.152E-01
  -0.339  0.181E-01  0.181E-01
  -0.329  0.222E-01  0.222E-01
  -0.319  0.190E-01  0.190E-01
  -0.309  0.222E-01  0.222E-01
  -0.299  0.261E-01  0.261E-01
  -0.289  0.221E-01  0.221E-01
  -0.279  0.950E-02  0.950E-02
  -0.269  0.967E-02  0.967E-02
  -0.259  0.117E-01  0.117E-01
  -0.249  0.121E-01  0.121E-01
  -0.239  0.124E-01  0.124E-01
  -0.229  0.165E-01  0.165E-01
  -0.219  0.953E-02  0.953E-02
  -0.209  0.959E-02  0.959E-02
  -0.199  0.964E-02  0.964E-02
  -0.189  0.968E-02  0.968E-02
  -0.179  0.970E-02  0.970E-02
  -0.169  0.972E-02  0.972E-02
  -0.159  0.972E-02  0.972E-02
  -0.149  0.971E-02  0.971E-02
  -0.139  0.969E-02  0.969E-02
  -0.129  0.966E-02  0.966E-02
  -0.119  0.962E-02  0.962E-02
  -0.109  0.115E-01  0.115E-01
  -0.099  0.206E-01  0.206E-01
  -0.089  0.430E-01  0.430E-01
  -0.079  0.110E+00  0.110E+00
  -0.069  0.463E+00  0.463E+00
  -0.059  0.862E+00  0.862E+00
  -0.049  0.240E+00  0.240E+00
  -0.039  0.161E+00  0.161E+00
  -0.029  0.152E+00  0.152E+00
  -0.019  0.157E+00  0.157E+00
  -0.009  0.125E+00  0.125E+00
   0.001  0.103E+00  0.103E+00
   0.011  0.819E-01  0.819E-01
   0.021  0.678E-01  0.678E-01
   0.031  0.389E-01  0.389E-01
   0.041  0.650E-02  0.650E-02
   0.051  0.840E-02  0.840E-02
   0.061  0.130E-01  0.130E-01
   0.071  0.146E-01  0.146E-01
   0.081  0.423E-02  0.423E-02
   0.091  0.431E-02  0.431E-02
   0.101  0.466E-02  0.466E-02
   0.111  0.502E-02  0.502E-02
   0.121  0.537E-02  0.537E-02
   0.131  0.573E-02  0.573E-02
   0.141  0.610E-02  0.610E-02
   0.151  0.646E-02  0.646E-02
   0.161  0.683E-02  0.683E-02
   0.171  0.720E-02  0.720E-02
   0.181  0.757E-02  0.757E-02
   0.191  0.795E-02  0.795E-02
   0.201  0.833E-02  0.833E-02
   0.211  0.871E-02  0.871E-02
   0.221  0.909E-02  0.909E-02
   0.231  0.948E-02  0.948E-02
   0.241  0.987E-02  0.987E-02
   0.251  0.103E-01  0.103E-01
   0.261  0.107E-01  0.107E-01
   0.271  0.110E-01  0.110E-01
   0.281  0.114E-01  0.114E-01
   0.291  0.118E-01  0.118E-01
   0.301  0.123E-01  0.123E-01
   0.311  0.127E-01  0.127E-01
   0.321  0.131E-01  0.131E-01
   0.331  0.135E-01  0.135E-01
   0.341  0.139E-01  0.139E-01
   0.351  0.143E-01  0.143E-01
   0.361  0.147E-01  0.147E-01
   0.371  0.151E-01  0.151E-01
   0.381  0.163E-01  0.163E-01
   0.391  0.370E-01  0.370E-01
   0.401  0.858E-01  0.858E-01
   0.411  0.401E-01  0.401E-01
   0.421  0.422E-01  0.422E-01
   0.431  0.444E-01  0.444E-01
   0.441  0.722E-01  0.722E-01
   0.451  0.990E-01  0.990E-01
   0.461  0.131E+00  0.131E+00
   0.471  0.219E+00  0.219E+00
   0.481  0.303E+00  0.303E+00
   0.491  0.371E+00  0.371E+00
   0.501  0.423E+00  0.423E+00
   0.511  0.460E+00  0.460E+00
   0.521  0.377E+00  0.377E+00
   0.531  0.377E+00  0.377E+00
   0.541  0.398E+00  0.398E+00
   0.551  0.385E+00  0.385E+00
   0.561  0.316E+00  0.316E+00
   0.571  0.246E+00  0.246E+00
   0.581  0.247E+00  0.247E+00
   0.591  0.246E+00  0.246E+00
   0.601  0.251E+00  0.251E+00
   0.611  0.250E+00  0.250E+00
   0.621  0.225E+00  0.225E+00
   0.631  0.163E+00  0.163E+00
   0.641  0.142E+00  0.142E+00
   0.651  0.136E+00  0.136E+00
   0.661  0.131E+00  0.131E+00
   0.671  0.126E+00  0.126E+00
   0.681  0.121E+00  0.121E+00
   0.691  0.117E+00  0.117E+00
   0.701  0.112E+00  0.112E+00
   0.711  0.108E+00  0.108E+00
   0.721  0.105E+00  0.105E+00
   0.731  0.101E+00  0.101E+00
   0.741  0.984E-01  0.984E-01
   0.751  0.109E+00  0.109E+00
   0.761  0.105E+00  0.105E+00
   0.771  0.101E+00  0.101E+00
   0.781  0.976E-01  0.976E-01
   0.791  0.949E-01  0.949E-01
   0.801  0.908E-01  0.908E-01
   0.811  0.895E-01  0.895E-01
   0.821  0.900E-01  0.900E-01
   0.831  0.106E+00  0.106E+00
   0.841  0.106E+00  0.106E+00
   0.851  0.107E+00  0.107E+00
   0.861  0.109E+00  0.109E+00
   0.871  0.160E+00  0.160E+00
   0.881  0.195E+00  0.195E+00
   0.891  0.168E+00  0.168E+00
   0.901  0.918E-01  0.918E-01
   0.911  0.107E+00  0.107E+00
   0.921  0.142E+00  0.142E+00
   0.931  0.207E+00  0.207E+00
   0.941  0.267E+00  0.267E+00
   0.951  0.315E+00  0.315E+00
   0.961  0.351E+00  0.351E+00
   0.971  0.275E+00  0.275E+00
   0.981  0.282E+00  0.282E+00
   0.991  0.183E+00  0.183E+00
   1.001  0.201E+00  0.201E+00
   1.011  0.217E+00  0.217E+00
   1.021  0.232E+00  0.232E+00
   1.031  0.472E+00  0.472E+00
   1.041  0.880E-01  0.880E-01
   1.051  0.218E+00  0.218E+00
   1.061  0.216E+00  0.216E+00
   1.071  0.202E+00  0.202E+00
   1.081  0.178E+00  0.178E+00
   1.091  0.150E+00  0.150E+00
   1.101  0.132E+00  0.132E+00
   1.111  0.117E+00  0.117E+00
   1.121  0.105E+00  0.105E+00
   1.131  0.930E-01  0.930E-01
   1.141  0.108E+00  0.108E+00
   1.151  0.128E+00  0.128E+00
   1.161  0.151E+00  0.151E+00
   1.171  0.180E+00  0.180E+00
   1.181  0.200E+00  0.200E+00
   1.191  0.183E+00  0.183E+00
   1.201  0.167E+00  0.167E+00
   1.211  0.156E+00  0.156E+00
   1.221  0.147E+00  0.147E+00
   1.231  0.142E+00  0.142E+00
   1.241  0.137E+00  0.137E+00
   1.251  0.139E+00  0.139E+00
   1.261  0.153E+00  0.153E+00
   1.271  0.181E+00  0.181E+00
   1.281  0.240E+00  0.240E+00
   1.291  0.118E+00  0.118E+00
   1.301  0.139E+00  0.139E+00
   1.311  0.132E+00  0.132E+00
   1.321  0.126E+00  0.126E+00
   1.331  0.121E+00  0.121E+00
   1.341  0.124E+00  0.124E+00
   1.351  0.124E+00  0.124E+00
   1.361  0.135E+00  0.135E+00
   1.371  0.129E+00  0.129E+00
   1.381  0.117E+00  0.117E+00
   1.391  0.101E+00  0.101E+00
   1.401  0.804E-01  0.804E-01
   1.411  0.552E-01  0.552E-01
   1.421  0.292E-01  0.292E-01
   1.431  0.229E-01  0.229E-01
   1.441  0.225E-01  0.225E-01
   1.451  0.231E-01  0.231E-01
   1.461  0.247E-01  0.247E-01
   1.471  0.272E-01  0.272E-01
   1.481  0.305E-01  0.305E-01
   1.491  0.341E-01  0.341E-01
   1.501  0.436E-01  0.436E-01
   1.511  0.144E+00  0.144E+00
   1.521  0.192E+00  0.192E+00
   1.531  0.188E+00  0.188E+00
   1.541  0.670E-01  0.670E-01
   1.551  0.770E-01  0.770E-01
   1.561  0.106E+00  0.106E+00
   1.571  0.112E+00  0.112E+00
   1.581  0.126E+00  0.126E+00
   1.591  0.145E+00  0.145E+00
   1.601  0.166E+00  0.166E+00
   1.611  0.189E+00  0.189E+00
   1.621  0.142E+00  0.142E+00
   1.631  0.147E+00  0.147E+00
   1.641  0.154E+00  0.154E+00
   1.651  0.161E+00  0.161E+00
   1.661  0.170E+00  0.170E+00
   1.671  0.166E+00  0.166E+00
   1.681  0.159E+00  0.159E+00
   1.691  0.154E+00  0.154E+00
   1.701  0.149E+00  0.149E+00
   1.711  0.145E+00  0.145E+00
   1.721  0.142E+00  0.142E+00
   1.731  0.874E-01  0.874E-01
   1.741  0.746E-01  0.746E-01
   1.751  0.631E-01  0.631E-01
   1.761  0.527E-01  0.527E-01
   1.771  0.435E-01  0.435E-01
   1.781  0.372E-01  0.372E-01
   1.791  0.296E-01  0.296E-01
   1.801  0.229E-01  0.229E-01
   1.811  0.171E-01  0.171E-01
   1.821  0.122E-01  0.122E-01
   1.831  0.823E-02  0.823E-02
   1.841  0.507E-02  0.507E-02
   1.851  0.266E-02  0.266E-02
   1.861  0.130E-02  0.130E-02
   1.871  0.114E-02  0.114E-02
   1.881  0.930E-03  0.930E-03
   1.891  0.683E-03  0.683E-03
   1.901  0.395E-03  0.395E-03
   1.911  0.665E-04  0.665E-04
   1.921  0.000E+00  0.000E+00
