#  E (eV)   dos(E)     Int dos(E) EFermi =   -0.635 eV
 -14.950  0.5434E-05  0.2717E-07
 -14.945  0.8534E-05  0.6984E-07
 -14.940  0.1327E-04  0.1362E-06
 -14.935  0.2043E-04  0.2383E-06
 -14.930  0.3115E-04  0.3941E-06
 -14.925  0.4702E-04  0.6292E-06
 -14.920  0.7028E-04  0.9806E-06
 -14.915  0.1040E-03  0.1501E-05
 -14.910  0.1525E-03  0.2263E-05
 -14.905  0.2214E-03  0.3370E-05
 -14.900  0.3183E-03  0.4962E-05
 -14.895  0.4533E-03  0.7228E-05
 -14.890  0.6392E-03  0.1042E-04
 -14.885  0.8928E-03  0.1489E-04
 -14.880  0.1235E-02  0.2106E-04
 -14.875  0.1692E-02  0.2953E-04
 -14.870  0.2297E-02  0.4101E-04
 -14.865  0.3088E-02  0.5645E-04
 -14.860  0.4112E-02  0.7701E-04
 -14.855  0.5423E-02  0.1041E-03
 -14.850  0.7086E-02  0.1396E-03
 -14.845  0.9171E-02  0.1854E-03
 -14.840  0.1176E-01  0.2442E-03
 -14.835  0.1493E-01  0.3189E-03
 -14.830  0.1879E-01  0.4128E-03
 -14.825  0.2342E-01  0.5299E-03
 -14.820  0.2893E-01  0.6746E-03
 -14.815  0.3539E-01  0.8515E-03
 -14.810  0.4290E-01  0.1066E-02
 -14.805  0.5154E-01  0.1324E-02
 -14.800  0.6134E-01  0.1630E-02
 -14.795  0.7236E-01  0.1992E-02
 -14.790  0.8459E-01  0.2415E-02
 -14.785  0.9801E-01  0.2905E-02
 -14.780  0.1126E+00  0.3468E-02
 -14.775  0.1282E+00  0.4109E-02
 -14.770  0.1448E+00  0.4833E-02
 -14.765  0.1622E+00  0.5644E-02
 -14.760  0.1802E+00  0.6545E-02
 -14.755  0.1987E+00  0.7539E-02
 -14.750  0.2175E+00  0.8627E-02
 -14.745  0.2364E+00  0.9809E-02
 -14.740  0.2552E+00  0.1108E-01
 -14.735  0.2737E+00  0.1245E-01
 -14.730  0.2918E+00  0.1391E-01
 -14.725  0.3094E+00  0.1546E-01
 -14.720  0.3263E+00  0.1709E-01
 -14.715  0.3426E+00  0.1880E-01
 -14.710  0.3581E+00  0.2059E-01
 -14.705  0.3729E+00  0.2246E-01
 -14.700  0.3868E+00  0.2439E-01
 -14.695  0.3999E+00  0.2639E-01
 -14.690  0.4123E+00  0.2845E-01
 -14.685  0.4237E+00  0.3057E-01
 -14.680  0.4342E+00  0.3274E-01
 -14.675  0.4436E+00  0.3496E-01
 -14.670  0.4520E+00  0.3722E-01
 -14.665  0.4592E+00  0.3952E-01
 -14.660  0.4650E+00  0.4184E-01
 -14.655  0.4694E+00  0.4419E-01
 -14.650  0.4723E+00  0.4655E-01
 -14.645  0.4737E+00  0.4892E-01
 -14.640  0.4735E+00  0.5129E-01
 -14.635  0.4718E+00  0.5365E-01
 -14.630  0.4689E+00  0.5599E-01
 -14.625  0.4648E+00  0.5831E-01
 -14.620  0.4599E+00  0.6061E-01
 -14.615  0.4544E+00  0.6289E-01
 -14.610  0.4489E+00  0.6513E-01
 -14.605  0.4437E+00  0.6735E-01
 -14.600  0.4393E+00  0.6955E-01
 -14.595  0.4359E+00  0.7172E-01
 -14.590  0.4341E+00  0.7389E-01
 -14.585  0.4339E+00  0.7606E-01
 -14.580  0.4357E+00  0.7824E-01
 -14.575  0.4396E+00  0.8044E-01
 -14.570  0.4453E+00  0.8267E-01
 -14.565  0.4529E+00  0.8493E-01
 -14.560  0.4619E+00  0.8724E-01
 -14.555  0.4722E+00  0.8960E-01
 -14.550  0.4831E+00  0.9202E-01
 -14.545  0.4942E+00  0.9449E-01
 -14.540  0.5050E+00  0.9701E-01
 -14.535  0.5149E+00  0.9959E-01
 -14.530  0.5235E+00  0.1022E+00
 -14.525  0.5302E+00  0.1049E+00
 -14.520  0.5349E+00  0.1075E+00
 -14.515  0.5371E+00  0.1102E+00
 -14.510  0.5367E+00  0.1129E+00
 -14.505  0.5337E+00  0.1156E+00
 -14.500  0.5282E+00  0.1182E+00
 -14.495  0.5202E+00  0.1208E+00
 -14.490  0.5100E+00  0.1234E+00
 -14.485  0.4979E+00  0.1259E+00
 -14.480  0.4844E+00  0.1283E+00
 -14.475  0.4697E+00  0.1306E+00
 -14.470  0.4545E+00  0.1329E+00
 -14.465  0.4391E+00  0.1351E+00
 -14.460  0.4241E+00  0.1372E+00
 -14.455  0.4100E+00  0.1393E+00
 -14.450  0.3973E+00  0.1412E+00
 -14.445  0.3865E+00  0.1432E+00
 -14.440  0.3779E+00  0.1451E+00
 -14.435  0.3720E+00  0.1469E+00
 -14.430  0.3691E+00  0.1488E+00
 -14.425  0.3695E+00  0.1506E+00
 -14.420  0.3733E+00  0.1525E+00
 -14.415  0.3805E+00  0.1544E+00
 -14.410  0.3911E+00  0.1563E+00
 -14.405  0.4050E+00  0.1584E+00
 -14.400  0.4217E+00  0.1605E+00
 -14.395  0.4408E+00  0.1627E+00
 -14.390  0.4619E+00  0.1650E+00
 -14.385  0.4842E+00  0.1674E+00
 -14.380  0.5070E+00  0.1699E+00
 -14.375  0.5295E+00  0.1726E+00
 -14.370  0.5510E+00  0.1754E+00
 -14.365  0.5706E+00  0.1782E+00
 -14.360  0.5877E+00  0.1811E+00
 -14.355  0.6016E+00  0.1841E+00
 -14.350  0.6117E+00  0.1872E+00
 -14.345  0.6178E+00  0.1903E+00
 -14.340  0.6196E+00  0.1934E+00
 -14.335  0.6171E+00  0.1965E+00
 -14.330  0.6104E+00  0.1995E+00
 -14.325  0.5998E+00  0.2025E+00
 -14.320  0.5856E+00  0.2055E+00
 -14.315  0.5686E+00  0.2083E+00
 -14.310  0.5492E+00  0.2110E+00
 -14.305  0.5282E+00  0.2137E+00
 -14.300  0.5061E+00  0.2162E+00
 -14.295  0.4838E+00  0.2186E+00
 -14.290  0.4619E+00  0.2209E+00
 -14.285  0.4407E+00  0.2232E+00
 -14.280  0.4209E+00  0.2253E+00
 -14.275  0.4028E+00  0.2273E+00
 -14.270  0.3866E+00  0.2292E+00
 -14.265  0.3726E+00  0.2311E+00
 -14.260  0.3607E+00  0.2329E+00
 -14.255  0.3511E+00  0.2346E+00
 -14.250  0.3437E+00  0.2363E+00
 -14.245  0.3385E+00  0.2380E+00
 -14.240  0.3355E+00  0.2397E+00
 -14.235  0.3346E+00  0.2414E+00
 -14.230  0.3358E+00  0.2431E+00
 -14.225  0.3392E+00  0.2448E+00
 -14.220  0.3446E+00  0.2465E+00
 -14.215  0.3522E+00  0.2482E+00
 -14.210  0.3619E+00  0.2501E+00
 -14.205  0.3738E+00  0.2519E+00
 -14.200  0.3878E+00  0.2539E+00
 -14.195  0.4038E+00  0.2559E+00
 -14.190  0.4217E+00  0.2580E+00
 -14.185  0.4412E+00  0.2602E+00
 -14.180  0.4622E+00  0.2625E+00
 -14.175  0.4842E+00  0.2649E+00
 -14.170  0.5069E+00  0.2675E+00
 -14.165  0.5299E+00  0.2701E+00
 -14.160  0.5527E+00  0.2729E+00
 -14.155  0.5747E+00  0.2758E+00
 -14.150  0.5956E+00  0.2787E+00
 -14.145  0.6149E+00  0.2818E+00
 -14.140  0.6321E+00  0.2850E+00
 -14.135  0.6469E+00  0.2882E+00
 -14.130  0.6588E+00  0.2915E+00
 -14.125  0.6677E+00  0.2948E+00
 -14.120  0.6733E+00  0.2982E+00
 -14.115  0.6754E+00  0.3016E+00
 -14.110  0.6739E+00  0.3049E+00
 -14.105  0.6687E+00  0.3083E+00
 -14.100  0.6599E+00  0.3116E+00
 -14.095  0.6476E+00  0.3148E+00
 -14.090  0.6319E+00  0.3180E+00
 -14.085  0.6131E+00  0.3210E+00
 -14.080  0.5914E+00  0.3240E+00
 -14.075  0.5673E+00  0.3268E+00
 -14.070  0.5412E+00  0.3295E+00
 -14.065  0.5136E+00  0.3321E+00
 -14.060  0.4852E+00  0.3345E+00
 -14.055  0.4563E+00  0.3368E+00
 -14.050  0.4278E+00  0.3390E+00
 -14.045  0.4002E+00  0.3410E+00
 -14.040  0.3741E+00  0.3428E+00
 -14.035  0.3501E+00  0.3446E+00
 -14.030  0.3286E+00  0.3462E+00
 -14.025  0.3100E+00  0.3478E+00
 -14.020  0.2946E+00  0.3493E+00
 -14.015  0.2828E+00  0.3507E+00
 -14.010  0.2745E+00  0.3520E+00
 -14.005  0.2699E+00  0.3534E+00
 -14.000  0.2688E+00  0.3547E+00
 -13.995  0.2711E+00  0.3561E+00
 -13.990  0.2767E+00  0.3575E+00
 -13.985  0.2852E+00  0.3589E+00
 -13.980  0.2965E+00  0.3604E+00
 -13.975  0.3102E+00  0.3619E+00
 -13.970  0.3260E+00  0.3636E+00
 -13.965  0.3438E+00  0.3653E+00
 -13.960  0.3632E+00  0.3671E+00
 -13.955  0.3840E+00  0.3690E+00
 -13.950  0.4060E+00  0.3710E+00
 -13.945  0.4289E+00  0.3732E+00
 -13.940  0.4526E+00  0.3755E+00
 -13.935  0.4767E+00  0.3778E+00
 -13.930  0.5011E+00  0.3803E+00
 -13.925  0.5253E+00  0.3830E+00
 -13.920  0.5491E+00  0.3857E+00
 -13.915  0.5720E+00  0.3886E+00
 -13.910  0.5938E+00  0.3915E+00
 -13.905  0.6139E+00  0.3946E+00
 -13.900  0.6320E+00  0.3978E+00
 -13.895  0.6477E+00  0.4010E+00
 -13.890  0.6607E+00  0.4043E+00
 -13.885  0.6707E+00  0.4077E+00
 -13.880  0.6775E+00  0.4111E+00
 -13.875  0.6810E+00  0.4145E+00
 -13.870  0.6814E+00  0.4179E+00
 -13.865  0.6789E+00  0.4213E+00
 -13.860  0.6736E+00  0.4246E+00
 -13.855  0.6660E+00  0.4280E+00
 -13.850  0.6566E+00  0.4312E+00
 -13.845  0.6458E+00  0.4345E+00
 -13.840  0.6341E+00  0.4376E+00
 -13.835  0.6221E+00  0.4408E+00
 -13.830  0.6101E+00  0.4438E+00
 -13.825  0.5984E+00  0.4468E+00
 -13.820  0.5874E+00  0.4497E+00
 -13.815  0.5770E+00  0.4526E+00
 -13.810  0.5672E+00  0.4555E+00
 -13.805  0.5579E+00  0.4582E+00
 -13.800  0.5489E+00  0.4610E+00
 -13.795  0.5397E+00  0.4637E+00
 -13.790  0.5300E+00  0.4663E+00
 -13.785  0.5195E+00  0.4689E+00
 -13.780  0.5077E+00  0.4715E+00
 -13.775  0.4943E+00  0.4739E+00
 -13.770  0.4792E+00  0.4763E+00
 -13.765  0.4621E+00  0.4787E+00
 -13.760  0.4432E+00  0.4809E+00
 -13.755  0.4226E+00  0.4830E+00
 -13.750  0.4004E+00  0.4850E+00
 -13.745  0.3772E+00  0.4869E+00
 -13.740  0.3535E+00  0.4886E+00
 -13.735  0.3297E+00  0.4903E+00
 -13.730  0.3066E+00  0.4918E+00
 -13.725  0.2847E+00  0.4932E+00
 -13.720  0.2648E+00  0.4946E+00
 -13.715  0.2474E+00  0.4958E+00
 -13.710  0.2332E+00  0.4970E+00
 -13.705  0.2227E+00  0.4981E+00
 -13.700  0.2162E+00  0.4992E+00
 -13.695  0.2142E+00  0.5002E+00
 -13.690  0.2168E+00  0.5013E+00
 -13.685  0.2241E+00  0.5024E+00
 -13.680  0.2362E+00  0.5036E+00
 -13.675  0.2530E+00  0.5049E+00
 -13.670  0.2741E+00  0.5063E+00
 -13.665  0.2994E+00  0.5078E+00
 -13.660  0.3283E+00  0.5094E+00
 -13.655  0.3604E+00  0.5112E+00
 -13.650  0.3950E+00  0.5132E+00
 -13.645  0.4315E+00  0.5153E+00
 -13.640  0.4693E+00  0.5177E+00
 -13.635  0.5076E+00  0.5202E+00
 -13.630  0.5457E+00  0.5229E+00
 -13.625  0.5828E+00  0.5259E+00
 -13.620  0.6183E+00  0.5289E+00
 -13.615  0.6516E+00  0.5322E+00
 -13.610  0.6822E+00  0.5356E+00
 -13.605  0.7095E+00  0.5392E+00
 -13.600  0.7331E+00  0.5428E+00
 -13.595  0.7529E+00  0.5466E+00
 -13.590  0.7685E+00  0.5504E+00
 -13.585  0.7799E+00  0.5543E+00
 -13.580  0.7869E+00  0.5583E+00
 -13.575  0.7898E+00  0.5622E+00
 -13.570  0.7885E+00  0.5662E+00
 -13.565  0.7832E+00  0.5701E+00
 -13.560  0.7740E+00  0.5739E+00
 -13.555  0.7613E+00  0.5778E+00
 -13.550  0.7453E+00  0.5815E+00
 -13.545  0.7263E+00  0.5851E+00
 -13.540  0.7047E+00  0.5886E+00
 -13.535  0.6809E+00  0.5920E+00
 -13.530  0.6554E+00  0.5953E+00
 -13.525  0.6285E+00  0.5985E+00
 -13.520  0.6010E+00  0.6015E+00
 -13.515  0.5733E+00  0.6043E+00
 -13.510  0.5461E+00  0.6071E+00
 -13.505  0.5199E+00  0.6097E+00
 -13.500  0.4954E+00  0.6121E+00
 -13.495  0.4731E+00  0.6145E+00
 -13.490  0.4534E+00  0.6168E+00
 -13.485  0.4368E+00  0.6190E+00
 -13.480  0.4236E+00  0.6211E+00
 -13.475  0.4138E+00  0.6231E+00
 -13.470  0.4074E+00  0.6252E+00
 -13.465  0.4043E+00  0.6272E+00
 -13.460  0.4042E+00  0.6292E+00
 -13.455  0.4066E+00  0.6313E+00
 -13.450  0.4109E+00  0.6333E+00
 -13.445  0.4165E+00  0.6354E+00
 -13.440  0.4226E+00  0.6375E+00
 -13.435  0.4284E+00  0.6396E+00
 -13.430  0.4333E+00  0.6418E+00
 -13.425  0.4366E+00  0.6440E+00
 -13.420  0.4377E+00  0.6462E+00
 -13.415  0.4361E+00  0.6484E+00
 -13.410  0.4316E+00  0.6505E+00
 -13.405  0.4241E+00  0.6526E+00
 -13.400  0.4135E+00  0.6547E+00
 -13.395  0.4001E+00  0.6567E+00
 -13.390  0.3842E+00  0.6586E+00
 -13.385  0.3665E+00  0.6605E+00
 -13.380  0.3475E+00  0.6622E+00
 -13.375  0.3280E+00  0.6638E+00
 -13.370  0.3087E+00  0.6654E+00
 -13.365  0.2905E+00  0.6668E+00
 -13.360  0.2742E+00  0.6682E+00
 -13.355  0.2607E+00  0.6695E+00
 -13.350  0.2506E+00  0.6708E+00
 -13.345  0.2446E+00  0.6720E+00
 -13.340  0.2432E+00  0.6732E+00
 -13.335  0.2471E+00  0.6744E+00
 -13.330  0.2563E+00  0.6757E+00
 -13.325  0.2711E+00  0.6771E+00
 -13.320  0.2915E+00  0.6785E+00
 -13.315  0.3173E+00  0.6801E+00
 -13.310  0.3483E+00  0.6819E+00
 -13.305  0.3839E+00  0.6838E+00
 -13.300  0.4235E+00  0.6859E+00
 -13.295  0.4664E+00  0.6882E+00
 -13.290  0.5115E+00  0.6908E+00
 -13.285  0.5580E+00  0.6936E+00
 -13.280  0.6047E+00  0.6966E+00
 -13.275  0.6505E+00  0.6999E+00
 -13.270  0.6943E+00  0.7033E+00
 -13.265  0.7352E+00  0.7070E+00
 -13.260  0.7720E+00  0.7109E+00
 -13.255  0.8041E+00  0.7149E+00
 -13.250  0.8307E+00  0.7190E+00
 -13.245  0.8515E+00  0.7233E+00
 -13.240  0.8662E+00  0.7276E+00
 -13.235  0.8747E+00  0.7320E+00
 -13.230  0.8773E+00  0.7364E+00
 -13.225  0.8744E+00  0.7408E+00
 -13.220  0.8665E+00  0.7451E+00
 -13.215  0.8542E+00  0.7494E+00
 -13.210  0.8383E+00  0.7536E+00
 -13.205  0.8195E+00  0.7576E+00
 -13.200  0.7986E+00  0.7616E+00
 -13.195  0.7763E+00  0.7655E+00
 -13.190  0.7530E+00  0.7693E+00
 -13.185  0.7293E+00  0.7729E+00
 -13.180  0.7054E+00  0.7765E+00
 -13.175  0.6816E+00  0.7799E+00
 -13.170  0.6579E+00  0.7832E+00
 -13.165  0.6342E+00  0.7863E+00
 -13.160  0.6105E+00  0.7894E+00
 -13.155  0.5867E+00  0.7923E+00
 -13.150  0.5626E+00  0.7951E+00
 -13.145  0.5382E+00  0.7978E+00
 -13.140  0.5134E+00  0.8004E+00
 -13.135  0.4883E+00  0.8028E+00
 -13.130  0.4632E+00  0.8051E+00
 -13.125  0.4382E+00  0.8073E+00
 -13.120  0.4137E+00  0.8094E+00
 -13.115  0.3902E+00  0.8114E+00
 -13.110  0.3682E+00  0.8132E+00
 -13.105  0.3481E+00  0.8149E+00
 -13.100  0.3305E+00  0.8166E+00
 -13.095  0.3159E+00  0.8182E+00
 -13.090  0.3045E+00  0.8197E+00
 -13.085  0.2968E+00  0.8212E+00
 -13.080  0.2929E+00  0.8226E+00
 -13.075  0.2927E+00  0.8241E+00
 -13.070  0.2962E+00  0.8256E+00
 -13.065  0.3031E+00  0.8271E+00
 -13.060  0.3130E+00  0.8287E+00
 -13.055  0.3254E+00  0.8303E+00
 -13.050  0.3395E+00  0.8320E+00
 -13.045  0.3548E+00  0.8338E+00
 -13.040  0.3703E+00  0.8356E+00
 -13.035  0.3855E+00  0.8375E+00
 -13.030  0.3996E+00  0.8395E+00
 -13.025  0.4120E+00  0.8416E+00
 -13.020  0.4221E+00  0.8437E+00
 -13.015  0.4295E+00  0.8459E+00
 -13.010  0.4342E+00  0.8480E+00
 -13.005  0.4359E+00  0.8502E+00
 -13.000  0.4349E+00  0.8524E+00
 -12.995  0.4315E+00  0.8545E+00
 -12.990  0.4261E+00  0.8567E+00
 -12.985  0.4193E+00  0.8588E+00
 -12.980  0.4119E+00  0.8608E+00
 -12.975  0.4047E+00  0.8629E+00
 -12.970  0.3983E+00  0.8648E+00
 -12.965  0.3936E+00  0.8668E+00
 -12.960  0.3914E+00  0.8688E+00
 -12.955  0.3922E+00  0.8707E+00
 -12.950  0.3966E+00  0.8727E+00
 -12.945  0.4049E+00  0.8747E+00
 -12.940  0.4175E+00  0.8768E+00
 -12.935  0.4342E+00  0.8790E+00
 -12.930  0.4551E+00  0.8813E+00
 -12.925  0.4798E+00  0.8837E+00
 -12.920  0.5080E+00  0.8862E+00
 -12.915  0.5390E+00  0.8889E+00
 -12.910  0.5723E+00  0.8918E+00
 -12.905  0.6072E+00  0.8948E+00
 -12.900  0.6429E+00  0.8980E+00
 -12.895  0.6785E+00  0.9014E+00
 -12.890  0.7134E+00  0.9050E+00
 -12.885  0.7468E+00  0.9087E+00
 -12.880  0.7778E+00  0.9126E+00
 -12.875  0.8060E+00  0.9166E+00
 -12.870  0.8306E+00  0.9208E+00
 -12.865  0.8511E+00  0.9250E+00
 -12.860  0.8673E+00  0.9294E+00
 -12.855  0.8788E+00  0.9338E+00
 -12.850  0.8854E+00  0.9382E+00
 -12.845  0.8872E+00  0.9426E+00
 -12.840  0.8841E+00  0.9471E+00
 -12.835  0.8766E+00  0.9514E+00
 -12.830  0.8649E+00  0.9558E+00
 -12.825  0.8494E+00  0.9600E+00
 -12.820  0.8309E+00  0.9642E+00
 -12.815  0.8099E+00  0.9682E+00
 -12.810  0.7871E+00  0.9721E+00
 -12.805  0.7632E+00  0.9760E+00
 -12.800  0.7390E+00  0.9797E+00
 -12.795  0.7149E+00  0.9832E+00
 -12.790  0.6916E+00  0.9867E+00
 -12.785  0.6695E+00  0.9900E+00
 -12.780  0.6488E+00  0.9933E+00
 -12.775  0.6297E+00  0.9964E+00
 -12.770  0.6122E+00  0.9995E+00
 -12.765  0.5960E+00  0.1002E+01
 -12.760  0.5810E+00  0.1005E+01
 -12.755  0.5668E+00  0.1008E+01
 -12.750  0.5529E+00  0.1011E+01
 -12.745  0.5389E+00  0.1014E+01
 -12.740  0.5244E+00  0.1016E+01
 -12.735  0.5089E+00  0.1019E+01
 -12.730  0.4923E+00  0.1021E+01
 -12.725  0.4744E+00  0.1024E+01
 -12.720  0.4551E+00  0.1026E+01
 -12.715  0.4345E+00  0.1028E+01
 -12.710  0.4130E+00  0.1030E+01
 -12.705  0.3907E+00  0.1032E+01
 -12.700  0.3683E+00  0.1034E+01
 -12.695  0.3462E+00  0.1036E+01
 -12.690  0.3251E+00  0.1037E+01
 -12.685  0.3056E+00  0.1039E+01
 -12.680  0.2883E+00  0.1040E+01
 -12.675  0.2737E+00  0.1042E+01
 -12.670  0.2624E+00  0.1043E+01
 -12.665  0.2548E+00  0.1044E+01
 -12.660  0.2510E+00  0.1046E+01
 -12.655  0.2513E+00  0.1047E+01
 -12.650  0.2557E+00  0.1048E+01
 -12.645  0.2640E+00  0.1049E+01
 -12.640  0.2759E+00  0.1051E+01
 -12.635  0.2911E+00  0.1052E+01
 -12.630  0.3091E+00  0.1054E+01
 -12.625  0.3294E+00  0.1055E+01
 -12.620  0.3513E+00  0.1057E+01
 -12.615  0.3742E+00  0.1059E+01
 -12.610  0.3976E+00  0.1061E+01
 -12.605  0.4208E+00  0.1063E+01
 -12.600  0.4435E+00  0.1065E+01
 -12.595  0.4652E+00  0.1068E+01
 -12.590  0.4856E+00  0.1070E+01
 -12.585  0.5047E+00  0.1073E+01
 -12.580  0.5223E+00  0.1075E+01
 -12.575  0.5387E+00  0.1078E+01
 -12.570  0.5540E+00  0.1081E+01
 -12.565  0.5684E+00  0.1084E+01
 -12.560  0.5825E+00  0.1086E+01
 -12.555  0.5963E+00  0.1089E+01
 -12.550  0.6105E+00  0.1092E+01
 -12.545  0.6251E+00  0.1096E+01
 -12.540  0.6404E+00  0.1099E+01
 -12.535  0.6566E+00  0.1102E+01
 -12.530  0.6737E+00  0.1105E+01
 -12.525  0.6916E+00  0.1109E+01
 -12.520  0.7101E+00  0.1112E+01
 -12.515  0.7291E+00  0.1116E+01
 -12.510  0.7481E+00  0.1120E+01
 -12.505  0.7669E+00  0.1124E+01
 -12.500  0.7851E+00  0.1128E+01
 -12.495  0.8024E+00  0.1132E+01
 -12.490  0.8186E+00  0.1136E+01
 -12.485  0.8332E+00  0.1140E+01
 -12.480  0.8462E+00  0.1144E+01
 -12.475  0.8575E+00  0.1148E+01
 -12.470  0.8668E+00  0.1153E+01
 -12.465  0.8743E+00  0.1157E+01
 -12.460  0.8798E+00  0.1161E+01
 -12.455  0.8833E+00  0.1166E+01
 -12.450  0.8849E+00  0.1170E+01
 -12.445  0.8846E+00  0.1175E+01
 -12.440  0.8822E+00  0.1179E+01
 -12.435  0.8779E+00  0.1184E+01
 -12.430  0.8715E+00  0.1188E+01
 -12.425  0.8630E+00  0.1192E+01
 -12.420  0.8524E+00  0.1196E+01
 -12.415  0.8399E+00  0.1201E+01
 -12.410  0.8254E+00  0.1205E+01
 -12.405  0.8092E+00  0.1209E+01
 -12.400  0.7915E+00  0.1213E+01
 -12.395  0.7726E+00  0.1217E+01
 -12.390  0.7528E+00  0.1220E+01
 -12.385  0.7326E+00  0.1224E+01
 -12.380  0.7124E+00  0.1228E+01
 -12.375  0.6925E+00  0.1231E+01
 -12.370  0.6733E+00  0.1235E+01
 -12.365  0.6550E+00  0.1238E+01
 -12.360  0.6379E+00  0.1241E+01
 -12.355  0.6220E+00  0.1244E+01
 -12.350  0.6073E+00  0.1247E+01
 -12.345  0.5936E+00  0.1250E+01
 -12.340  0.5808E+00  0.1253E+01
 -12.335  0.5684E+00  0.1256E+01
 -12.330  0.5562E+00  0.1259E+01
 -12.325  0.5439E+00  0.1261E+01
 -12.320  0.5309E+00  0.1264E+01
 -12.315  0.5172E+00  0.1267E+01
 -12.310  0.5025E+00  0.1269E+01
 -12.305  0.4868E+00  0.1272E+01
 -12.300  0.4700E+00  0.1274E+01
 -12.295  0.4524E+00  0.1276E+01
 -12.290  0.4342E+00  0.1278E+01
 -12.285  0.4159E+00  0.1280E+01
 -12.280  0.3981E+00  0.1282E+01
 -12.275  0.3812E+00  0.1284E+01
 -12.270  0.3658E+00  0.1286E+01
 -12.265  0.3526E+00  0.1288E+01
 -12.260  0.3420E+00  0.1290E+01
 -12.255  0.3346E+00  0.1291E+01
 -12.250  0.3306E+00  0.1293E+01
 -12.245  0.3304E+00  0.1295E+01
 -12.240  0.3340E+00  0.1296E+01
 -12.235  0.3415E+00  0.1298E+01
 -12.230  0.3525E+00  0.1300E+01
 -12.225  0.3669E+00  0.1302E+01
 -12.220  0.3842E+00  0.1303E+01
 -12.215  0.4041E+00  0.1305E+01
 -12.210  0.4261E+00  0.1308E+01
 -12.205  0.4496E+00  0.1310E+01
 -12.200  0.4743E+00  0.1312E+01
 -12.195  0.4996E+00  0.1315E+01
 -12.190  0.5254E+00  0.1317E+01
 -12.185  0.5513E+00  0.1320E+01
 -12.180  0.5774E+00  0.1323E+01
 -12.175  0.6034E+00  0.1326E+01
 -12.170  0.6296E+00  0.1329E+01
 -12.165  0.6561E+00  0.1332E+01
 -12.160  0.6830E+00  0.1336E+01
 -12.155  0.7105E+00  0.1339E+01
 -12.150  0.7389E+00  0.1343E+01
 -12.145  0.7683E+00  0.1347E+01
 -12.140  0.7989E+00  0.1351E+01
 -12.135  0.8305E+00  0.1355E+01
 -12.130  0.8631E+00  0.1359E+01
 -12.125  0.8964E+00  0.1364E+01
 -12.120  0.9303E+00  0.1369E+01
 -12.115  0.9643E+00  0.1373E+01
 -12.110  0.9978E+00  0.1378E+01
 -12.105  0.1030E+01  0.1384E+01
 -12.100  0.1062E+01  0.1389E+01
 -12.095  0.1091E+01  0.1394E+01
 -12.090  0.1117E+01  0.1400E+01
 -12.085  0.1141E+01  0.1406E+01
 -12.080  0.1161E+01  0.1411E+01
 -12.075  0.1177E+01  0.1417E+01
 -12.070  0.1190E+01  0.1423E+01
 -12.065  0.1198E+01  0.1429E+01
 -12.060  0.1202E+01  0.1435E+01
 -12.055  0.1202E+01  0.1441E+01
 -12.050  0.1198E+01  0.1447E+01
 -12.045  0.1191E+01  0.1453E+01
 -12.040  0.1180E+01  0.1459E+01
 -12.035  0.1167E+01  0.1465E+01
 -12.030  0.1150E+01  0.1471E+01
 -12.025  0.1132E+01  0.1476E+01
 -12.020  0.1113E+01  0.1482E+01
 -12.015  0.1093E+01  0.1487E+01
 -12.010  0.1072E+01  0.1493E+01
 -12.005  0.1052E+01  0.1498E+01
 -12.000  0.1032E+01  0.1503E+01
 -11.995  0.1013E+01  0.1508E+01
 -11.990  0.9950E+00  0.1513E+01
 -11.985  0.9788E+00  0.1518E+01
 -11.980  0.9642E+00  0.1523E+01
 -11.975  0.9512E+00  0.1528E+01
 -11.970  0.9399E+00  0.1532E+01
 -11.965  0.9299E+00  0.1537E+01
 -11.960  0.9211E+00  0.1542E+01
 -11.955  0.9131E+00  0.1546E+01
 -11.950  0.9056E+00  0.1551E+01
 -11.945  0.8980E+00  0.1555E+01
 -11.940  0.8900E+00  0.1560E+01
 -11.935  0.8811E+00  0.1564E+01
 -11.930  0.8710E+00  0.1568E+01
 -11.925  0.8592E+00  0.1573E+01
 -11.920  0.8455E+00  0.1577E+01
 -11.915  0.8297E+00  0.1581E+01
 -11.910  0.8118E+00  0.1585E+01
 -11.905  0.7919E+00  0.1589E+01
 -11.900  0.7700E+00  0.1593E+01
 -11.895  0.7467E+00  0.1597E+01
 -11.890  0.7222E+00  0.1600E+01
 -11.885  0.6972E+00  0.1604E+01
 -11.880  0.6724E+00  0.1607E+01
 -11.875  0.6486E+00  0.1610E+01
 -11.870  0.6266E+00  0.1613E+01
 -11.865  0.6073E+00  0.1617E+01
 -11.860  0.5916E+00  0.1619E+01
 -11.855  0.5803E+00  0.1622E+01
 -11.850  0.5744E+00  0.1625E+01
 -11.845  0.5745E+00  0.1628E+01
 -11.840  0.5814E+00  0.1631E+01
 -11.835  0.5955E+00  0.1634E+01
 -11.830  0.6173E+00  0.1637E+01
 -11.825  0.6469E+00  0.1640E+01
 -11.820  0.6843E+00  0.1644E+01
 -11.815  0.7294E+00  0.1647E+01
 -11.810  0.7816E+00  0.1651E+01
 -11.805  0.8401E+00  0.1655E+01
 -11.800  0.9042E+00  0.1660E+01
 -11.795  0.9724E+00  0.1665E+01
 -11.790  0.1043E+01  0.1670E+01
 -11.785  0.1115E+01  0.1676E+01
 -11.780  0.1187E+01  0.1682E+01
 -11.775  0.1255E+01  0.1688E+01
 -11.770  0.1320E+01  0.1694E+01
 -11.765  0.1377E+01  0.1701E+01
 -11.760  0.1426E+01  0.1708E+01
 -11.755  0.1465E+01  0.1716E+01
 -11.750  0.1492E+01  0.1723E+01
 -11.745  0.1506E+01  0.1731E+01
 -11.740  0.1507E+01  0.1738E+01
 -11.735  0.1494E+01  0.1746E+01
 -11.730  0.1468E+01  0.1753E+01
 -11.725  0.1428E+01  0.1760E+01
 -11.720  0.1377E+01  0.1767E+01
 -11.715  0.1315E+01  0.1774E+01
 -11.710  0.1244E+01  0.1780E+01
 -11.705  0.1166E+01  0.1786E+01
 -11.700  0.1083E+01  0.1791E+01
 -11.695  0.9965E+00  0.1796E+01
 -11.690  0.9096E+00  0.1801E+01
 -11.685  0.8238E+00  0.1805E+01
 -11.680  0.7410E+00  0.1809E+01
 -11.675  0.6625E+00  0.1812E+01
 -11.670  0.5898E+00  0.1815E+01
 -11.665  0.5238E+00  0.1817E+01
 -11.660  0.4651E+00  0.1820E+01
 -11.655  0.4140E+00  0.1822E+01
 -11.650  0.3706E+00  0.1824E+01
 -11.645  0.3347E+00  0.1825E+01
 -11.640  0.3060E+00  0.1827E+01
 -11.635  0.2838E+00  0.1828E+01
 -11.630  0.2674E+00  0.1830E+01
 -11.625  0.2562E+00  0.1831E+01
 -11.620  0.2492E+00  0.1832E+01
 -11.615  0.2458E+00  0.1833E+01
 -11.610  0.2453E+00  0.1835E+01
 -11.605  0.2469E+00  0.1836E+01
 -11.600  0.2502E+00  0.1837E+01
 -11.595  0.2547E+00  0.1838E+01
 -11.590  0.2602E+00  0.1840E+01
 -11.585  0.2665E+00  0.1841E+01
 -11.580  0.2737E+00  0.1842E+01
 -11.575  0.2817E+00  0.1844E+01
 -11.570  0.2908E+00  0.1845E+01
 -11.565  0.3012E+00  0.1847E+01
 -11.560  0.3131E+00  0.1848E+01
 -11.555  0.3269E+00  0.1850E+01
 -11.550  0.3428E+00  0.1852E+01
 -11.545  0.3610E+00  0.1853E+01
 -11.540  0.3815E+00  0.1855E+01
 -11.535  0.4045E+00  0.1857E+01
 -11.530  0.4297E+00  0.1860E+01
 -11.525  0.4570E+00  0.1862E+01
 -11.520  0.4860E+00  0.1864E+01
 -11.515  0.5161E+00  0.1867E+01
 -11.510  0.5469E+00  0.1870E+01
 -11.505  0.5776E+00  0.1872E+01
 -11.500  0.6076E+00  0.1876E+01
 -11.495  0.6361E+00  0.1879E+01
 -11.490  0.6622E+00  0.1882E+01
 -11.485  0.6854E+00  0.1885E+01
 -11.480  0.7049E+00  0.1889E+01
 -11.475  0.7202E+00  0.1893E+01
 -11.470  0.7308E+00  0.1896E+01
 -11.465  0.7363E+00  0.1900E+01
 -11.460  0.7365E+00  0.1904E+01
 -11.455  0.7314E+00  0.1907E+01
 -11.450  0.7210E+00  0.1911E+01
 -11.445  0.7056E+00  0.1914E+01
 -11.440  0.6856E+00  0.1918E+01
 -11.435  0.6615E+00  0.1921E+01
 -11.430  0.6339E+00  0.1924E+01
 -11.425  0.6035E+00  0.1927E+01
 -11.420  0.5710E+00  0.1930E+01
 -11.415  0.5374E+00  0.1933E+01
 -11.410  0.5035E+00  0.1935E+01
 -11.405  0.4700E+00  0.1938E+01
 -11.400  0.4377E+00  0.1940E+01
 -11.395  0.4074E+00  0.1942E+01
 -11.390  0.3795E+00  0.1944E+01
 -11.385  0.3547E+00  0.1946E+01
 -11.380  0.3333E+00  0.1947E+01
 -11.375  0.3155E+00  0.1949E+01
 -11.370  0.3015E+00  0.1950E+01
 -11.365  0.2912E+00  0.1952E+01
 -11.360  0.2845E+00  0.1953E+01
 -11.355  0.2811E+00  0.1955E+01
 -11.350  0.2807E+00  0.1956E+01
 -11.345  0.2829E+00  0.1957E+01
 -11.340  0.2872E+00  0.1959E+01
 -11.335  0.2931E+00  0.1960E+01
 -11.330  0.3001E+00  0.1962E+01
 -11.325  0.3078E+00  0.1963E+01
 -11.320  0.3156E+00  0.1965E+01
 -11.315  0.3231E+00  0.1967E+01
 -11.310  0.3299E+00  0.1968E+01
 -11.305  0.3356E+00  0.1970E+01
 -11.300  0.3400E+00  0.1972E+01
 -11.295  0.3428E+00  0.1973E+01
 -11.290  0.3438E+00  0.1975E+01
 -11.285  0.3429E+00  0.1977E+01
 -11.280  0.3399E+00  0.1978E+01
 -11.275  0.3350E+00  0.1980E+01
 -11.270  0.3280E+00  0.1982E+01
 -11.265  0.3191E+00  0.1983E+01
 -11.260  0.3083E+00  0.1985E+01
 -11.255  0.2958E+00  0.1986E+01
 -11.250  0.2818E+00  0.1988E+01
 -11.245  0.2664E+00  0.1989E+01
 -11.240  0.2500E+00  0.1990E+01
 -11.235  0.2327E+00  0.1992E+01
 -11.230  0.2149E+00  0.1993E+01
 -11.225  0.1968E+00  0.1994E+01
 -11.220  0.1788E+00  0.1995E+01
 -11.215  0.1609E+00  0.1995E+01
 -11.210  0.1436E+00  0.1996E+01
 -11.205  0.1270E+00  0.1997E+01
 -11.200  0.1113E+00  0.1997E+01
 -11.195  0.9658E-01  0.1998E+01
 -11.190  0.8304E-01  0.1998E+01
 -11.185  0.7071E-01  0.1998E+01
 -11.180  0.5963E-01  0.1999E+01
 -11.175  0.4979E-01  0.1999E+01
 -11.170  0.4116E-01  0.1999E+01
 -11.165  0.3369E-01  0.1999E+01
 -11.160  0.2729E-01  0.2000E+01
 -11.155  0.2189E-01  0.2000E+01
 -11.150  0.1737E-01  0.2000E+01
 -11.145  0.1365E-01  0.2000E+01
 -11.140  0.1061E-01  0.2000E+01
 -11.135  0.8163E-02  0.2000E+01
 -11.130  0.6215E-02  0.2000E+01
 -11.125  0.4682E-02  0.2000E+01
 -11.120  0.3490E-02  0.2000E+01
 -11.115  0.2575E-02  0.2000E+01
 -11.110  0.1879E-02  0.2000E+01
 -11.105  0.1357E-02  0.2000E+01
 -11.100  0.9695E-03  0.2000E+01
 -11.095  0.6853E-03  0.2000E+01
 -11.090  0.4793E-03  0.2000E+01
 -11.085  0.3316E-03  0.2000E+01
 -11.080  0.2270E-03  0.2000E+01
 -11.075  0.1538E-03  0.2000E+01
 -11.070  0.1030E-03  0.2000E+01
 -11.065  0.6829E-04  0.2000E+01
 -11.060  0.4478E-04  0.2000E+01
 -11.055  0.2905E-04  0.2000E+01
 -11.050  0.1865E-04  0.2000E+01
 -11.045  0.1184E-04  0.2000E+01
 -11.040  0.7437E-05  0.2000E+01
 -11.035  0.4621E-05  0.2000E+01
 -11.030  0.2841E-05  0.2000E+01
 -11.025  0.1728E-05  0.2000E+01
 -11.020  0.1039E-05  0.2000E+01
 -11.015  0.6187E-06  0.2000E+01
 -11.010  0.3643E-06  0.2000E+01
 -11.005  0.2122E-06  0.2000E+01
 -11.000  0.1223E-06  0.2000E+01
 -10.995  0.6970E-07  0.2000E+01
 -10.990  0.3930E-07  0.2000E+01
 -10.985  0.2193E-07  0.2000E+01
 -10.980  0.1210E-07  0.2000E+01
 -10.975  0.6606E-08  0.2000E+01
 -10.970  0.3568E-08  0.2000E+01
 -10.965  0.1906E-08  0.2000E+01
 -10.960  0.1007E-08  0.2000E+01
 -10.955  0.5268E-09  0.2000E+01
 -10.950  0.2725E-09  0.2000E+01
 -10.945  0.1394E-09  0.2000E+01
 -10.940  0.7057E-10  0.2000E+01
 -10.935  0.3534E-10  0.2000E+01
 -10.930  0.1751E-10  0.2000E+01
 -10.925  0.8579E-11  0.2000E+01
 -10.920  0.4159E-11  0.2000E+01
 -10.915  0.1995E-11  0.2000E+01
 -10.910  0.9463E-12  0.2000E+01
 -10.905  0.4441E-12  0.2000E+01
 -10.900  0.2062E-12  0.2000E+01
 -10.895  0.9470E-13  0.2000E+01
 -10.890  0.4303E-13  0.2000E+01
 -10.885  0.1934E-13  0.2000E+01
 -10.880  0.8600E-14  0.2000E+01
 -10.875  0.3783E-14  0.2000E+01
 -10.870  0.1646E-14  0.2000E+01
 -10.865  0.7086E-15  0.2000E+01
 -10.860  0.3017E-15  0.2000E+01
 -10.855  0.1271E-15  0.2000E+01
 -10.850  0.5297E-16  0.2000E+01
 -10.845  0.2184E-16  0.2000E+01
 -10.840  0.8906E-17  0.2000E+01
 -10.835  0.3593E-17  0.2000E+01
 -10.830  0.1434E-17  0.2000E+01
 -10.825  0.5662E-18  0.2000E+01
 -10.820  0.2211E-18  0.2000E+01
 -10.815  0.8545E-19  0.2000E+01
 -10.810  0.3266E-19  0.2000E+01
 -10.805  0.1235E-19  0.2000E+01
 -10.800  0.4620E-20  0.2000E+01
 -10.795  0.1709E-20  0.2000E+01
 -10.790  0.6258E-21  0.2000E+01
 -10.785  0.2266E-21  0.2000E+01
 -10.780  0.8118E-22  0.2000E+01
 -10.775  0.2877E-22  0.2000E+01
 -10.770  0.1009E-22  0.2000E+01
 -10.765  0.3498E-23  0.2000E+01
 -10.760  0.1200E-23  0.2000E+01
 -10.755  0.4073E-24  0.2000E+01
 -10.750  0.1368E-24  0.2000E+01
 -10.745  0.4542E-25  0.2000E+01
 -10.740  0.1493E-25  0.2000E+01
 -10.735  0.4851E-26  0.2000E+01
 -10.730  0.1560E-26  0.2000E+01
 -10.725  0.4962E-27  0.2000E+01
 -10.720  0.1562E-27  0.2000E+01
 -10.715  0.4861E-28  0.2000E+01
 -10.710  0.1497E-28  0.2000E+01
 -10.705  0.4560E-29  0.2000E+01
 -10.700  0.1374E-29  0.2000E+01
 -10.695  0.4097E-30  0.2000E+01
 -10.690  0.1208E-30  0.2000E+01
 -10.685  0.3526E-31  0.2000E+01
 -10.680  0.1018E-31  0.2000E+01
 -10.675  0.2905E-32  0.2000E+01
 -10.670  0.8206E-33  0.2000E+01
 -10.665  0.2293E-33  0.2000E+01
 -10.660  0.6338E-34  0.2000E+01
 -10.655  0.1733E-34  0.2000E+01
 -10.650  0.4688E-35  0.2000E+01
 -10.645  0.1255E-35  0.2000E+01
 -10.640  0.3321E-36  0.2000E+01
 -10.635  0.8698E-37  0.2000E+01
 -10.630  0.2253E-37  0.2000E+01
 -10.625  0.5775E-38  0.2000E+01
 -10.620  0.1464E-38  0.2000E+01
 -10.615  0.3672E-39  0.2000E+01
 -10.610  0.9110E-40  0.2000E+01
 -10.605  0.2236E-40  0.2000E+01
 -10.600  0.5429E-41  0.2000E+01
 -10.595  0.1304E-41  0.2000E+01
 -10.590  0.3099E-42  0.2000E+01
 -10.585  0.7283E-43  0.2000E+01
 -10.580  0.1694E-43  0.2000E+01
 -10.575  0.3896E-44  0.2000E+01
 -10.570  0.8866E-45  0.2000E+01
 -10.565  0.1996E-45  0.2000E+01
 -10.560  0.4445E-46  0.2000E+01
 -10.555  0.9792E-47  0.2000E+01
 -10.550  0.2134E-47  0.2000E+01
 -10.545  0.4601E-48  0.2000E+01
 -10.540  0.9813E-49  0.2000E+01
 -10.535  0.2070E-49  0.2000E+01
 -10.530  0.4321E-50  0.2000E+01
 -10.525  0.8923E-51  0.2000E+01
 -10.520  0.1823E-51  0.2000E+01
 -10.515  0.3683E-52  0.2000E+01
 -10.510  0.7362E-53  0.2000E+01
 -10.505  0.1456E-53  0.2000E+01
 -10.500  0.2848E-54  0.2000E+01
 -10.495  0.5511E-55  0.2000E+01
 -10.490  0.1055E-55  0.2000E+01
 -10.485  0.1998E-56  0.2000E+01
 -10.480  0.3743E-57  0.2000E+01
 -10.475  0.6937E-58  0.2000E+01
 -10.470  0.1272E-58  0.2000E+01
 -10.465  0.2307E-59  0.2000E+01
 -10.460  0.4139E-60  0.2000E+01
 -10.455  0.7346E-61  0.2000E+01
 -10.450  0.1290E-61  0.2000E+01
 -10.445  0.2240E-62  0.2000E+01
 -10.440  0.3850E-63  0.2000E+01
 -10.435  0.6544E-64  0.2000E+01
 -10.430  0.1100E-64  0.2000E+01
 -10.425  0.1831E-65  0.2000E+01
 -10.420  0.3013E-66  0.2000E+01
 -10.415  0.4905E-67  0.2000E+01
 -10.410  0.7899E-68  0.2000E+01
 -10.405  0.1258E-68  0.2000E+01
 -10.400  0.1983E-69  0.2000E+01
 -10.395  0.3092E-70  0.2000E+01
 -10.390  0.4769E-71  0.2000E+01
 -10.385  0.7277E-72  0.2000E+01
 -10.380  0.1098E-72  0.2000E+01
 -10.375  0.1640E-73  0.2000E+01
 -10.370  0.2423E-74  0.2000E+01
 -10.365  0.3540E-75  0.2000E+01
 -10.360  0.5117E-76  0.2000E+01
 -10.355  0.7318E-77  0.2000E+01
 -10.350  0.1035E-77  0.2000E+01
 -10.345  0.1449E-78  0.2000E+01
 -10.340  0.2006E-79  0.2000E+01
 -10.335  0.2747E-80  0.2000E+01
 -10.330  0.3723E-81  0.2000E+01
 -10.325  0.5006E-82  0.2000E+01
 -10.320  0.6796E-83  0.2000E+01
 -10.315  0.1051E-83  0.2000E+01
 -10.310  0.2959E-84  0.2000E+01
 -10.305  0.1982E-84  0.2000E+01
 -10.300  0.1895E-84  0.2000E+01
 -10.295  0.2184E-84  0.2000E+01
 -10.290  0.4533E-84  0.2000E+01
 -10.285  0.2246E-83  0.2000E+01
 -10.280  0.1578E-82  0.2000E+01
 -10.275  0.1168E-81  0.2000E+01
 -10.270  0.8632E-81  0.2000E+01
 -10.265  0.6318E-80  0.2000E+01
 -10.260  0.4575E-79  0.2000E+01
 -10.255  0.3277E-78  0.2000E+01
 -10.250  0.2322E-77  0.2000E+01
 -10.245  0.1628E-76  0.2000E+01
 -10.240  0.1129E-75  0.2000E+01
 -10.235  0.7747E-75  0.2000E+01
 -10.230  0.5258E-74  0.2000E+01
 -10.225  0.3530E-73  0.2000E+01
 -10.220  0.2345E-72  0.2000E+01
 -10.215  0.1541E-71  0.2000E+01
 -10.210  0.1001E-70  0.2000E+01
 -10.205  0.6439E-70  0.2000E+01
 -10.200  0.4096E-69  0.2000E+01
 -10.195  0.2577E-68  0.2000E+01
 -10.190  0.1604E-67  0.2000E+01
 -10.185  0.9880E-67  0.2000E+01
 -10.180  0.6019E-66  0.2000E+01
 -10.175  0.3627E-65  0.2000E+01
 -10.170  0.2162E-64  0.2000E+01
 -10.165  0.1275E-63  0.2000E+01
 -10.160  0.7440E-63  0.2000E+01
 -10.155  0.4294E-62  0.2000E+01
 -10.150  0.2452E-61  0.2000E+01
 -10.145  0.1385E-60  0.2000E+01
 -10.140  0.7738E-60  0.2000E+01
 -10.135  0.4277E-59  0.2000E+01
 -10.130  0.2339E-58  0.2000E+01
 -10.125  0.1265E-57  0.2000E+01
 -10.120  0.6770E-57  0.2000E+01
 -10.115  0.3584E-56  0.2000E+01
 -10.110  0.1877E-55  0.2000E+01
 -10.105  0.9722E-55  0.2000E+01
 -10.100  0.4982E-54  0.2000E+01
 -10.095  0.2526E-53  0.2000E+01
 -10.090  0.1267E-52  0.2000E+01
 -10.085  0.6285E-52  0.2000E+01
 -10.080  0.3085E-51  0.2000E+01
 -10.075  0.1498E-50  0.2000E+01
 -10.070  0.7194E-50  0.2000E+01
 -10.065  0.3418E-49  0.2000E+01
 -10.060  0.1607E-48  0.2000E+01
 -10.055  0.7472E-48  0.2000E+01
 -10.050  0.3437E-47  0.2000E+01
 -10.045  0.1564E-46  0.2000E+01
 -10.040  0.7041E-46  0.2000E+01
 -10.035  0.3135E-45  0.2000E+01
 -10.030  0.1381E-44  0.2000E+01
 -10.025  0.6020E-44  0.2000E+01
 -10.020  0.2595E-43  0.2000E+01
 -10.015  0.1107E-42  0.2000E+01
 -10.010  0.4670E-42  0.2000E+01
 -10.005  0.1949E-41  0.2000E+01
 -10.000  0.8048E-41  0.2000E+01
  -9.995  0.3287E-40  0.2000E+01
  -9.990  0.1328E-39  0.2000E+01
  -9.985  0.5309E-39  0.2000E+01
  -9.980  0.2100E-38  0.2000E+01
  -9.975  0.8213E-38  0.2000E+01
  -9.970  0.3178E-37  0.2000E+01
  -9.965  0.1217E-36  0.2000E+01
  -9.960  0.4608E-36  0.2000E+01
  -9.955  0.1726E-35  0.2000E+01
  -9.950  0.6397E-35  0.2000E+01
  -9.945  0.2345E-34  0.2000E+01
  -9.940  0.8506E-34  0.2000E+01
  -9.935  0.3052E-33  0.2000E+01
  -9.930  0.1083E-32  0.2000E+01
  -9.925  0.3804E-32  0.2000E+01
  -9.920  0.1321E-31  0.2000E+01
  -9.915  0.4540E-31  0.2000E+01
  -9.910  0.1543E-30  0.2000E+01
  -9.905  0.5189E-30  0.2000E+01
  -9.900  0.1726E-29  0.2000E+01
  -9.895  0.5680E-29  0.2000E+01
  -9.890  0.1849E-28  0.2000E+01
  -9.885  0.5955E-28  0.2000E+01
  -9.880  0.1897E-27  0.2000E+01
  -9.875  0.5979E-27  0.2000E+01
  -9.870  0.1864E-26  0.2000E+01
  -9.865  0.5750E-26  0.2000E+01
  -9.860  0.1754E-25  0.2000E+01
  -9.855  0.5295E-25  0.2000E+01
  -9.850  0.1581E-24  0.2000E+01
  -9.845  0.4670E-24  0.2000E+01
  -9.840  0.1365E-23  0.2000E+01
  -9.835  0.3945E-23  0.2000E+01
  -9.830  0.1128E-22  0.2000E+01
  -9.825  0.3191E-22  0.2000E+01
  -9.820  0.8930E-22  0.2000E+01
  -9.815  0.2472E-21  0.2000E+01
  -9.810  0.6770E-21  0.2000E+01
  -9.805  0.1834E-20  0.2000E+01
  -9.800  0.4916E-20  0.2000E+01
  -9.795  0.1303E-19  0.2000E+01
  -9.790  0.3418E-19  0.2000E+01
  -9.785  0.8869E-19  0.2000E+01
  -9.780  0.2277E-18  0.2000E+01
  -9.775  0.5780E-18  0.2000E+01
  -9.770  0.1452E-17  0.2000E+01
  -9.765  0.3608E-17  0.2000E+01
  -9.760  0.8869E-17  0.2000E+01
  -9.755  0.2157E-16  0.2000E+01
  -9.750  0.5188E-16  0.2000E+01
  -9.745  0.1235E-15  0.2000E+01
  -9.740  0.2907E-15  0.2000E+01
  -9.735  0.6770E-15  0.2000E+01
  -9.730  0.1560E-14  0.2000E+01
  -9.725  0.3555E-14  0.2000E+01
  -9.720  0.8014E-14  0.2000E+01
  -9.715  0.1788E-13  0.2000E+01
  -9.710  0.3944E-13  0.2000E+01
  -9.705  0.8609E-13  0.2000E+01
  -9.700  0.1859E-12  0.2000E+01
  -9.695  0.3971E-12  0.2000E+01
  -9.690  0.8391E-12  0.2000E+01
  -9.685  0.1754E-11  0.2000E+01
  -9.680  0.3627E-11  0.2000E+01
  -9.675  0.7421E-11  0.2000E+01
  -9.670  0.1502E-10  0.2000E+01
  -9.665  0.3007E-10  0.2000E+01
  -9.660  0.5954E-10  0.2000E+01
  -9.655  0.1167E-09  0.2000E+01
  -9.650  0.2261E-09  0.2000E+01
  -9.645  0.4335E-09  0.2000E+01
  -9.640  0.8223E-09  0.2000E+01
  -9.635  0.1543E-08  0.2000E+01
  -9.630  0.2864E-08  0.2000E+01
  -9.625  0.5260E-08  0.2000E+01
  -9.620  0.9555E-08  0.2000E+01
  -9.615  0.1717E-07  0.2000E+01
  -9.610  0.3053E-07  0.2000E+01
  -9.605  0.5369E-07  0.2000E+01
  -9.600  0.9341E-07  0.2000E+01
  -9.595  0.1608E-06  0.2000E+01
  -9.590  0.2738E-06  0.2000E+01
  -9.585  0.4611E-06  0.2000E+01
  -9.580  0.7684E-06  0.2000E+01
  -9.575  0.1267E-05  0.2000E+01
  -9.570  0.2066E-05  0.2000E+01
  -9.565  0.3334E-05  0.2000E+01
  -9.560  0.5321E-05  0.2000E+01
  -9.555  0.8403E-05  0.2000E+01
  -9.550  0.1313E-04  0.2000E+01
  -9.545  0.2029E-04  0.2000E+01
  -9.540  0.3103E-04  0.2000E+01
  -9.535  0.4695E-04  0.2000E+01
  -9.530  0.7028E-04  0.2000E+01
  -9.525  0.1041E-03  0.2000E+01
  -9.520  0.1525E-03  0.2000E+01
  -9.515  0.2212E-03  0.2000E+01
  -9.510  0.3173E-03  0.2000E+01
  -9.505  0.4505E-03  0.2000E+01
  -9.500  0.6330E-03  0.2000E+01
  -9.495  0.8802E-03  0.2000E+01
  -9.490  0.1211E-02  0.2000E+01
  -9.485  0.1650E-02  0.2000E+01
  -9.480  0.2224E-02  0.2000E+01
  -9.475  0.2969E-02  0.2000E+01
  -9.470  0.3924E-02  0.2000E+01
  -9.465  0.5135E-02  0.2000E+01
  -9.460  0.6654E-02  0.2000E+01
  -9.455  0.8541E-02  0.2000E+01
  -9.450  0.1086E-01  0.2000E+01
  -9.445  0.1369E-01  0.2000E+01
  -9.440  0.1709E-01  0.2000E+01
  -9.435  0.2116E-01  0.2000E+01
  -9.430  0.2598E-01  0.2001E+01
  -9.425  0.3164E-01  0.2001E+01
  -9.420  0.3824E-01  0.2001E+01
  -9.415  0.4587E-01  0.2001E+01
  -9.410  0.5462E-01  0.2001E+01
  -9.405  0.6462E-01  0.2002E+01
  -9.400  0.7595E-01  0.2002E+01
  -9.395  0.8874E-01  0.2003E+01
  -9.390  0.1031E+00  0.2003E+01
  -9.385  0.1191E+00  0.2004E+01
  -9.380  0.1369E+00  0.2004E+01
  -9.375  0.1565E+00  0.2005E+01
  -9.370  0.1781E+00  0.2006E+01
  -9.365  0.2017E+00  0.2007E+01
  -9.360  0.2273E+00  0.2008E+01
  -9.355  0.2549E+00  0.2010E+01
  -9.350  0.2844E+00  0.2011E+01
  -9.345  0.3156E+00  0.2013E+01
  -9.340  0.3483E+00  0.2014E+01
  -9.335  0.3821E+00  0.2016E+01
  -9.330  0.4167E+00  0.2018E+01
  -9.325  0.4515E+00  0.2020E+01
  -9.320  0.4859E+00  0.2023E+01
  -9.315  0.5191E+00  0.2026E+01
  -9.310  0.5505E+00  0.2028E+01
  -9.305  0.5794E+00  0.2031E+01
  -9.300  0.6049E+00  0.2034E+01
  -9.295  0.6264E+00  0.2037E+01
  -9.290  0.6433E+00  0.2041E+01
  -9.285  0.6552E+00  0.2044E+01
  -9.280  0.6617E+00  0.2047E+01
  -9.275  0.6628E+00  0.2050E+01
  -9.270  0.6586E+00  0.2054E+01
  -9.265  0.6494E+00  0.2057E+01
  -9.260  0.6358E+00  0.2060E+01
  -9.255  0.6186E+00  0.2063E+01
  -9.250  0.5986E+00  0.2066E+01
  -9.245  0.5769E+00  0.2069E+01
  -9.240  0.5547E+00  0.2072E+01
  -9.235  0.5331E+00  0.2075E+01
  -9.230  0.5134E+00  0.2077E+01
  -9.225  0.4967E+00  0.2080E+01
  -9.220  0.4839E+00  0.2082E+01
  -9.215  0.4759E+00  0.2084E+01
  -9.210  0.4733E+00  0.2087E+01
  -9.205  0.4766E+00  0.2089E+01
  -9.200  0.4859E+00  0.2092E+01
  -9.195  0.5013E+00  0.2094E+01
  -9.190  0.5224E+00  0.2097E+01
  -9.185  0.5487E+00  0.2099E+01
  -9.180  0.5797E+00  0.2102E+01
  -9.175  0.6144E+00  0.2105E+01
  -9.170  0.6520E+00  0.2109E+01
  -9.165  0.6914E+00  0.2112E+01
  -9.160  0.7316E+00  0.2116E+01
  -9.155  0.7717E+00  0.2120E+01
  -9.150  0.8105E+00  0.2124E+01
  -9.145  0.8473E+00  0.2128E+01
  -9.140  0.8811E+00  0.2132E+01
  -9.135  0.9113E+00  0.2137E+01
  -9.130  0.9373E+00  0.2142E+01
  -9.125  0.9584E+00  0.2146E+01
  -9.120  0.9745E+00  0.2151E+01
  -9.115  0.9850E+00  0.2156E+01
  -9.110  0.9900E+00  0.2161E+01
  -9.105  0.9893E+00  0.2166E+01
  -9.100  0.9828E+00  0.2171E+01
  -9.095  0.9706E+00  0.2176E+01
  -9.090  0.9530E+00  0.2181E+01
  -9.085  0.9300E+00  0.2185E+01
  -9.080  0.9021E+00  0.2190E+01
  -9.075  0.8697E+00  0.2194E+01
  -9.070  0.8333E+00  0.2198E+01
  -9.065  0.7935E+00  0.2202E+01
  -9.060  0.7511E+00  0.2206E+01
  -9.055  0.7069E+00  0.2210E+01
  -9.050  0.6618E+00  0.2213E+01
  -9.045  0.6169E+00  0.2216E+01
  -9.040  0.5731E+00  0.2219E+01
  -9.035  0.5316E+00  0.2221E+01
  -9.030  0.4934E+00  0.2224E+01
  -9.025  0.4596E+00  0.2226E+01
  -9.020  0.4312E+00  0.2228E+01
  -9.015  0.4092E+00  0.2230E+01
  -9.010  0.3945E+00  0.2232E+01
  -9.005  0.3877E+00  0.2234E+01
  -9.000  0.3894E+00  0.2236E+01
  -8.995  0.4001E+00  0.2238E+01
  -8.990  0.4201E+00  0.2240E+01
  -8.985  0.4492E+00  0.2243E+01
  -8.980  0.4874E+00  0.2245E+01
  -8.975  0.5342E+00  0.2248E+01
  -8.970  0.5891E+00  0.2251E+01
  -8.965  0.6510E+00  0.2254E+01
  -8.960  0.7190E+00  0.2258E+01
  -8.955  0.7918E+00  0.2262E+01
  -8.950  0.8679E+00  0.2266E+01
  -8.945  0.9456E+00  0.2271E+01
  -8.940  0.1023E+01  0.2276E+01
  -8.935  0.1099E+01  0.2281E+01
  -8.930  0.1171E+01  0.2287E+01
  -8.925  0.1238E+01  0.2293E+01
  -8.920  0.1298E+01  0.2300E+01
  -8.915  0.1350E+01  0.2306E+01
  -8.910  0.1393E+01  0.2313E+01
  -8.905  0.1426E+01  0.2321E+01
  -8.900  0.1448E+01  0.2328E+01
  -8.895  0.1459E+01  0.2335E+01
  -8.890  0.1460E+01  0.2342E+01
  -8.885  0.1452E+01  0.2350E+01
  -8.880  0.1434E+01  0.2357E+01
  -8.875  0.1410E+01  0.2364E+01
  -8.870  0.1378E+01  0.2371E+01
  -8.865  0.1343E+01  0.2377E+01
  -8.860  0.1304E+01  0.2384E+01
  -8.855  0.1264E+01  0.2390E+01
  -8.850  0.1225E+01  0.2396E+01
  -8.845  0.1187E+01  0.2402E+01
  -8.840  0.1151E+01  0.2408E+01
  -8.835  0.1120E+01  0.2414E+01
  -8.830  0.1093E+01  0.2419E+01
  -8.825  0.1071E+01  0.2425E+01
  -8.820  0.1053E+01  0.2430E+01
  -8.815  0.1040E+01  0.2435E+01
  -8.810  0.1030E+01  0.2440E+01
  -8.805  0.1023E+01  0.2445E+01
  -8.800  0.1018E+01  0.2450E+01
  -8.795  0.1014E+01  0.2455E+01
  -8.790  0.1009E+01  0.2461E+01
  -8.785  0.1003E+01  0.2466E+01
  -8.780  0.9942E+00  0.2470E+01
  -8.775  0.9818E+00  0.2475E+01
  -8.770  0.9654E+00  0.2480E+01
  -8.765  0.9444E+00  0.2485E+01
  -8.760  0.9188E+00  0.2490E+01
  -8.755  0.8887E+00  0.2494E+01
  -8.750  0.8546E+00  0.2498E+01
  -8.745  0.8172E+00  0.2502E+01
  -8.740  0.7774E+00  0.2506E+01
  -8.735  0.7363E+00  0.2510E+01
  -8.730  0.6951E+00  0.2513E+01
  -8.725  0.6552E+00  0.2517E+01
  -8.720  0.6177E+00  0.2520E+01
  -8.715  0.5838E+00  0.2523E+01
  -8.710  0.5547E+00  0.2525E+01
  -8.705  0.5313E+00  0.2528E+01
  -8.700  0.5142E+00  0.2531E+01
  -8.695  0.5039E+00  0.2533E+01
  -8.690  0.5006E+00  0.2536E+01
  -8.685  0.5042E+00  0.2538E+01
  -8.680  0.5146E+00  0.2541E+01
  -8.675  0.5310E+00  0.2543E+01
  -8.670  0.5528E+00  0.2546E+01
  -8.665  0.5791E+00  0.2549E+01
  -8.660  0.6088E+00  0.2552E+01
  -8.655  0.6408E+00  0.2555E+01
  -8.650  0.6740E+00  0.2559E+01
  -8.645  0.7073E+00  0.2562E+01
  -8.640  0.7394E+00  0.2566E+01
  -8.635  0.7695E+00  0.2570E+01
  -8.630  0.7967E+00  0.2574E+01
  -8.625  0.8203E+00  0.2578E+01
  -8.620  0.8397E+00  0.2582E+01
  -8.615  0.8545E+00  0.2586E+01
  -8.610  0.8645E+00  0.2591E+01
  -8.605  0.8696E+00  0.2595E+01
  -8.600  0.8700E+00  0.2599E+01
  -8.595  0.8659E+00  0.2604E+01
  -8.590  0.8576E+00  0.2608E+01
  -8.585  0.8455E+00  0.2612E+01
  -8.580  0.8301E+00  0.2616E+01
  -8.575  0.8120E+00  0.2620E+01
  -8.570  0.7918E+00  0.2624E+01
  -8.565  0.7700E+00  0.2628E+01
  -8.560  0.7473E+00  0.2632E+01
  -8.555  0.7243E+00  0.2636E+01
  -8.550  0.7015E+00  0.2639E+01
  -8.545  0.6795E+00  0.2643E+01
  -8.540  0.6587E+00  0.2646E+01
  -8.535  0.6397E+00  0.2649E+01
  -8.530  0.6227E+00  0.2652E+01
  -8.525  0.6080E+00  0.2655E+01
  -8.520  0.5958E+00  0.2658E+01
  -8.515  0.5861E+00  0.2661E+01
  -8.510  0.5790E+00  0.2664E+01
  -8.505  0.5743E+00  0.2667E+01
  -8.500  0.5718E+00  0.2670E+01
  -8.495  0.5711E+00  0.2673E+01
  -8.490  0.5718E+00  0.2675E+01
  -8.485  0.5734E+00  0.2678E+01
  -8.480  0.5753E+00  0.2681E+01
  -8.475  0.5771E+00  0.2684E+01
  -8.470  0.5780E+00  0.2687E+01
  -8.465  0.5775E+00  0.2690E+01
  -8.460  0.5752E+00  0.2693E+01
  -8.455  0.5704E+00  0.2696E+01
  -8.450  0.5630E+00  0.2698E+01
  -8.445  0.5527E+00  0.2701E+01
  -8.440  0.5393E+00  0.2704E+01
  -8.435  0.5228E+00  0.2706E+01
  -8.430  0.5035E+00  0.2709E+01
  -8.425  0.4816E+00  0.2711E+01
  -8.420  0.4575E+00  0.2714E+01
  -8.415  0.4317E+00  0.2716E+01
  -8.410  0.4048E+00  0.2718E+01
  -8.405  0.3775E+00  0.2720E+01
  -8.400  0.3505E+00  0.2721E+01
  -8.395  0.3246E+00  0.2723E+01
  -8.390  0.3003E+00  0.2725E+01
  -8.385  0.2784E+00  0.2726E+01
  -8.380  0.2595E+00  0.2727E+01
  -8.375  0.2441E+00  0.2728E+01
  -8.370  0.2325E+00  0.2730E+01
  -8.365  0.2251E+00  0.2731E+01
  -8.360  0.2221E+00  0.2732E+01
  -8.355  0.2234E+00  0.2733E+01
  -8.350  0.2291E+00  0.2734E+01
  -8.345  0.2389E+00  0.2735E+01
  -8.340  0.2525E+00  0.2737E+01
  -8.335  0.2694E+00  0.2738E+01
  -8.330  0.2893E+00  0.2739E+01
  -8.325  0.3116E+00  0.2741E+01
  -8.320  0.3357E+00  0.2743E+01
  -8.315  0.3610E+00  0.2744E+01
  -8.310  0.3870E+00  0.2746E+01
  -8.305  0.4132E+00  0.2748E+01
  -8.300  0.4391E+00  0.2751E+01
  -8.295  0.4645E+00  0.2753E+01
  -8.290  0.4892E+00  0.2755E+01
  -8.285  0.5130E+00  0.2758E+01
  -8.280  0.5360E+00  0.2761E+01
  -8.275  0.5583E+00  0.2763E+01
  -8.270  0.5801E+00  0.2766E+01
  -8.265  0.6017E+00  0.2769E+01
  -8.260  0.6234E+00  0.2772E+01
  -8.255  0.6455E+00  0.2776E+01
  -8.250  0.6680E+00  0.2779E+01
  -8.245  0.6912E+00  0.2783E+01
  -8.240  0.7149E+00  0.2786E+01
  -8.235  0.7390E+00  0.2790E+01
  -8.230  0.7630E+00  0.2794E+01
  -8.225  0.7866E+00  0.2798E+01
  -8.220  0.8090E+00  0.2802E+01
  -8.215  0.8293E+00  0.2806E+01
  -8.210  0.8469E+00  0.2810E+01
  -8.205  0.8607E+00  0.2814E+01
  -8.200  0.8700E+00  0.2819E+01
  -8.195  0.8740E+00  0.2823E+01
  -8.190  0.8721E+00  0.2827E+01
  -8.185  0.8638E+00  0.2832E+01
  -8.180  0.8488E+00  0.2836E+01
  -8.175  0.8273E+00  0.2840E+01
  -8.170  0.7993E+00  0.2844E+01
  -8.165  0.7655E+00  0.2848E+01
  -8.160  0.7263E+00  0.2851E+01
  -8.155  0.6827E+00  0.2855E+01
  -8.150  0.6355E+00  0.2858E+01
  -8.145  0.5859E+00  0.2861E+01
  -8.140  0.5349E+00  0.2864E+01
  -8.135  0.4834E+00  0.2866E+01
  -8.130  0.4325E+00  0.2868E+01
  -8.125  0.3831E+00  0.2870E+01
  -8.120  0.3360E+00  0.2872E+01
  -8.115  0.2916E+00  0.2873E+01
  -8.110  0.2506E+00  0.2875E+01
  -8.105  0.2132E+00  0.2876E+01
  -8.100  0.1797E+00  0.2877E+01
  -8.095  0.1501E+00  0.2877E+01
  -8.090  0.1243E+00  0.2878E+01
  -8.085  0.1022E+00  0.2878E+01
  -8.080  0.8368E-01  0.2879E+01
  -8.075  0.6846E-01  0.2879E+01
  -8.070  0.5632E-01  0.2879E+01
  -8.065  0.4702E-01  0.2880E+01
  -8.060  0.4033E-01  0.2880E+01
  -8.055  0.3606E-01  0.2880E+01
  -8.050  0.3406E-01  0.2880E+01
  -8.045  0.3422E-01  0.2880E+01
  -8.040  0.3646E-01  0.2881E+01
  -8.035  0.4078E-01  0.2881E+01
  -8.030  0.4718E-01  0.2881E+01
  -8.025  0.5571E-01  0.2881E+01
  -8.020  0.6645E-01  0.2882E+01
  -8.015  0.7949E-01  0.2882E+01
  -8.010  0.9492E-01  0.2883E+01
  -8.005  0.1128E+00  0.2883E+01
  -8.000  0.1333E+00  0.2884E+01
  -7.995  0.1564E+00  0.2885E+01
  -7.990  0.1821E+00  0.2885E+01
  -7.985  0.2104E+00  0.2886E+01
  -7.980  0.2412E+00  0.2888E+01
  -7.975  0.2743E+00  0.2889E+01
  -7.970  0.3096E+00  0.2891E+01
  -7.965  0.3467E+00  0.2892E+01
  -7.960  0.3854E+00  0.2894E+01
  -7.955  0.4253E+00  0.2896E+01
  -7.950  0.4659E+00  0.2899E+01
  -7.945  0.5067E+00  0.2901E+01
  -7.940  0.5472E+00  0.2904E+01
  -7.935  0.5870E+00  0.2907E+01
  -7.930  0.6253E+00  0.2910E+01
  -7.925  0.6617E+00  0.2913E+01
  -7.920  0.6956E+00  0.2917E+01
  -7.915  0.7265E+00  0.2920E+01
  -7.910  0.7539E+00  0.2924E+01
  -7.905  0.7773E+00  0.2928E+01
  -7.900  0.7964E+00  0.2932E+01
  -7.895  0.8107E+00  0.2936E+01
  -7.890  0.8200E+00  0.2940E+01
  -7.885  0.8241E+00  0.2944E+01
  -7.880  0.8229E+00  0.2949E+01
  -7.875  0.8164E+00  0.2953E+01
  -7.870  0.8045E+00  0.2957E+01
  -7.865  0.7876E+00  0.2961E+01
  -7.860  0.7658E+00  0.2964E+01
  -7.855  0.7395E+00  0.2968E+01
  -7.850  0.7091E+00  0.2972E+01
  -7.845  0.6751E+00  0.2975E+01
  -7.840  0.6381E+00  0.2978E+01
  -7.835  0.5988E+00  0.2981E+01
  -7.830  0.5578E+00  0.2984E+01
  -7.825  0.5158E+00  0.2987E+01
  -7.820  0.4737E+00  0.2989E+01
  -7.815  0.4319E+00  0.2991E+01
  -7.810  0.3914E+00  0.2993E+01
  -7.805  0.3525E+00  0.2995E+01
  -7.800  0.3161E+00  0.2996E+01
  -7.795  0.2824E+00  0.2998E+01
  -7.790  0.2520E+00  0.2999E+01
  -7.785  0.2252E+00  0.3000E+01
  -7.780  0.2021E+00  0.3001E+01
  -7.775  0.1829E+00  0.3002E+01
  -7.770  0.1676E+00  0.3003E+01
  -7.765  0.1561E+00  0.3004E+01
  -7.760  0.1483E+00  0.3004E+01
  -7.755  0.1439E+00  0.3005E+01
  -7.750  0.1427E+00  0.3006E+01
  -7.745  0.1442E+00  0.3007E+01
  -7.740  0.1480E+00  0.3007E+01
  -7.735  0.1537E+00  0.3008E+01
  -7.730  0.1608E+00  0.3009E+01
  -7.725  0.1688E+00  0.3010E+01
  -7.720  0.1771E+00  0.3011E+01
  -7.715  0.1854E+00  0.3012E+01
  -7.710  0.1933E+00  0.3013E+01
  -7.705  0.2002E+00  0.3014E+01
  -7.700  0.2061E+00  0.3015E+01
  -7.695  0.2106E+00  0.3016E+01
  -7.690  0.2136E+00  0.3017E+01
  -7.685  0.2151E+00  0.3018E+01
  -7.680  0.2153E+00  0.3019E+01
  -7.675  0.2142E+00  0.3020E+01
  -7.670  0.2123E+00  0.3021E+01
  -7.665  0.2099E+00  0.3022E+01
  -7.660  0.2074E+00  0.3023E+01
  -7.655  0.2053E+00  0.3024E+01
  -7.650  0.2043E+00  0.3025E+01
  -7.645  0.2048E+00  0.3026E+01
  -7.640  0.2075E+00  0.3027E+01
  -7.635  0.2127E+00  0.3028E+01
  -7.630  0.2211E+00  0.3029E+01
  -7.625  0.2328E+00  0.3031E+01
  -7.620  0.2483E+00  0.3032E+01
  -7.615  0.2677E+00  0.3033E+01
  -7.610  0.2909E+00  0.3035E+01
  -7.605  0.3179E+00  0.3036E+01
  -7.600  0.3483E+00  0.3038E+01
  -7.595  0.3818E+00  0.3040E+01
  -7.590  0.4179E+00  0.3042E+01
  -7.585  0.4557E+00  0.3044E+01
  -7.580  0.4947E+00  0.3047E+01
  -7.575  0.5338E+00  0.3049E+01
  -7.570  0.5723E+00  0.3052E+01
  -7.565  0.6091E+00  0.3055E+01
  -7.560  0.6434E+00  0.3058E+01
  -7.555  0.6742E+00  0.3062E+01
  -7.550  0.7007E+00  0.3065E+01
  -7.545  0.7222E+00  0.3069E+01
  -7.540  0.7381E+00  0.3073E+01
  -7.535  0.7479E+00  0.3076E+01
  -7.530  0.7513E+00  0.3080E+01
  -7.525  0.7483E+00  0.3084E+01
  -7.520  0.7388E+00  0.3088E+01
  -7.515  0.7231E+00  0.3091E+01
  -7.510  0.7016E+00  0.3095E+01
  -7.505  0.6749E+00  0.3098E+01
  -7.500  0.6435E+00  0.3101E+01
  -7.495  0.6083E+00  0.3104E+01
  -7.490  0.5700E+00  0.3107E+01
  -7.485  0.5296E+00  0.3110E+01
  -7.480  0.4880E+00  0.3112E+01
  -7.475  0.4460E+00  0.3114E+01
  -7.470  0.4045E+00  0.3116E+01
  -7.465  0.3643E+00  0.3118E+01
  -7.460  0.3261E+00  0.3120E+01
  -7.455  0.2904E+00  0.3121E+01
  -7.450  0.2578E+00  0.3123E+01
  -7.445  0.2287E+00  0.3124E+01
  -7.440  0.2034E+00  0.3125E+01
  -7.435  0.1820E+00  0.3126E+01
  -7.430  0.1646E+00  0.3127E+01
  -7.425  0.1512E+00  0.3127E+01
  -7.420  0.1416E+00  0.3128E+01
  -7.415  0.1356E+00  0.3129E+01
  -7.410  0.1330E+00  0.3129E+01
  -7.405  0.1335E+00  0.3130E+01
  -7.400  0.1365E+00  0.3131E+01
  -7.395  0.1418E+00  0.3131E+01
  -7.390  0.1489E+00  0.3132E+01
  -7.385  0.1572E+00  0.3133E+01
  -7.380  0.1664E+00  0.3134E+01
  -7.375  0.1760E+00  0.3135E+01
  -7.370  0.1855E+00  0.3136E+01
  -7.365  0.1947E+00  0.3137E+01
  -7.360  0.2032E+00  0.3138E+01
  -7.355  0.2107E+00  0.3139E+01
  -7.350  0.2172E+00  0.3140E+01
  -7.345  0.2225E+00  0.3141E+01
  -7.340  0.2268E+00  0.3142E+01
  -7.335  0.2302E+00  0.3143E+01
  -7.330  0.2329E+00  0.3144E+01
  -7.325  0.2353E+00  0.3145E+01
  -7.320  0.2379E+00  0.3147E+01
  -7.315  0.2409E+00  0.3148E+01
  -7.310  0.2451E+00  0.3149E+01
  -7.305  0.2508E+00  0.3150E+01
  -7.300  0.2585E+00  0.3152E+01
  -7.295  0.2688E+00  0.3153E+01
  -7.290  0.2819E+00  0.3154E+01
  -7.285  0.2983E+00  0.3156E+01
  -7.280  0.3180E+00  0.3157E+01
  -7.275  0.3413E+00  0.3159E+01
  -7.270  0.3681E+00  0.3161E+01
  -7.265  0.3983E+00  0.3163E+01
  -7.260  0.4318E+00  0.3165E+01
  -7.255  0.4681E+00  0.3168E+01
  -7.250  0.5070E+00  0.3170E+01
  -7.245  0.5481E+00  0.3173E+01
  -7.240  0.5908E+00  0.3176E+01
  -7.235  0.6346E+00  0.3179E+01
  -7.230  0.6791E+00  0.3182E+01
  -7.225  0.7237E+00  0.3186E+01
  -7.220  0.7679E+00  0.3190E+01
  -7.215  0.8111E+00  0.3194E+01
  -7.210  0.8528E+00  0.3198E+01
  -7.205  0.8926E+00  0.3203E+01
  -7.200  0.9300E+00  0.3207E+01
  -7.195  0.9645E+00  0.3212E+01
  -7.190  0.9956E+00  0.3217E+01
  -7.185  0.1023E+01  0.3222E+01
  -7.180  0.1046E+01  0.3227E+01
  -7.175  0.1065E+01  0.3233E+01
  -7.170  0.1080E+01  0.3238E+01
  -7.165  0.1089E+01  0.3244E+01
  -7.160  0.1094E+01  0.3249E+01
  -7.155  0.1094E+01  0.3254E+01
  -7.150  0.1089E+01  0.3260E+01
  -7.145  0.1079E+01  0.3265E+01
  -7.140  0.1065E+01  0.3271E+01
  -7.135  0.1046E+01  0.3276E+01
  -7.130  0.1024E+01  0.3281E+01
  -7.125  0.9983E+00  0.3286E+01
  -7.120  0.9694E+00  0.3291E+01
  -7.115  0.9377E+00  0.3296E+01
  -7.110  0.9036E+00  0.3300E+01
  -7.105  0.8674E+00  0.3304E+01
  -7.100  0.8294E+00  0.3309E+01
  -7.095  0.7898E+00  0.3312E+01
  -7.090  0.7489E+00  0.3316E+01
  -7.085  0.7070E+00  0.3320E+01
  -7.080  0.6644E+00  0.3323E+01
  -7.075  0.6211E+00  0.3326E+01
  -7.070  0.5776E+00  0.3329E+01
  -7.065  0.5341E+00  0.3332E+01
  -7.060  0.4909E+00  0.3334E+01
  -7.055  0.4483E+00  0.3336E+01
  -7.050  0.4065E+00  0.3338E+01
  -7.045  0.3661E+00  0.3340E+01
  -7.040  0.3271E+00  0.3342E+01
  -7.035  0.2901E+00  0.3343E+01
  -7.030  0.2551E+00  0.3345E+01
  -7.025  0.2225E+00  0.3346E+01
  -7.020  0.1923E+00  0.3347E+01
  -7.015  0.1648E+00  0.3348E+01
  -7.010  0.1400E+00  0.3348E+01
  -7.005  0.1178E+00  0.3349E+01
  -7.000  0.9821E-01  0.3349E+01
  -6.995  0.8117E-01  0.3350E+01
  -6.990  0.6654E-01  0.3350E+01
  -6.985  0.5415E-01  0.3350E+01
  -6.980  0.4383E-01  0.3351E+01
  -6.975  0.3540E-01  0.3351E+01
  -6.970  0.2870E-01  0.3351E+01
  -6.965  0.2358E-01  0.3351E+01
  -6.960  0.1988E-01  0.3351E+01
  -6.955  0.1751E-01  0.3351E+01
  -6.950  0.1639E-01  0.3351E+01
  -6.945  0.1649E-01  0.3351E+01
  -6.940  0.1779E-01  0.3351E+01
  -6.935  0.2033E-01  0.3352E+01
  -6.930  0.2420E-01  0.3352E+01
  -6.925  0.2949E-01  0.3352E+01
  -6.920  0.3637E-01  0.3352E+01
  -6.915  0.4499E-01  0.3352E+01
  -6.910  0.5557E-01  0.3352E+01
  -6.905  0.6832E-01  0.3353E+01
  -6.900  0.8347E-01  0.3353E+01
  -6.895  0.1013E+00  0.3354E+01
  -6.890  0.1220E+00  0.3354E+01
  -6.885  0.1458E+00  0.3355E+01
  -6.880  0.1729E+00  0.3356E+01
  -6.875  0.2035E+00  0.3357E+01
  -6.870  0.2377E+00  0.3358E+01
  -6.865  0.2757E+00  0.3360E+01
  -6.860  0.3174E+00  0.3361E+01
  -6.855  0.3629E+00  0.3363E+01
  -6.850  0.4119E+00  0.3365E+01
  -6.845  0.4643E+00  0.3367E+01
  -6.840  0.5198E+00  0.3370E+01
  -6.835  0.5780E+00  0.3373E+01
  -6.830  0.6384E+00  0.3376E+01
  -6.825  0.7004E+00  0.3379E+01
  -6.820  0.7632E+00  0.3383E+01
  -6.815  0.8260E+00  0.3387E+01
  -6.810  0.8880E+00  0.3392E+01
  -6.805  0.9482E+00  0.3397E+01
  -6.800  0.1005E+01  0.3402E+01
  -6.795  0.1059E+01  0.3407E+01
  -6.790  0.1107E+01  0.3412E+01
  -6.785  0.1150E+01  0.3418E+01
  -6.780  0.1185E+01  0.3424E+01
  -6.775  0.1213E+01  0.3430E+01
  -6.770  0.1232E+01  0.3436E+01
  -6.765  0.1243E+01  0.3443E+01
  -6.760  0.1244E+01  0.3449E+01
  -6.755  0.1237E+01  0.3455E+01
  -6.750  0.1221E+01  0.3461E+01
  -6.745  0.1197E+01  0.3467E+01
  -6.740  0.1165E+01  0.3473E+01
  -6.735  0.1127E+01  0.3479E+01
  -6.730  0.1084E+01  0.3484E+01
  -6.725  0.1038E+01  0.3489E+01
  -6.720  0.9894E+00  0.3494E+01
  -6.715  0.9402E+00  0.3499E+01
  -6.710  0.8919E+00  0.3503E+01
  -6.705  0.8459E+00  0.3507E+01
  -6.700  0.8035E+00  0.3512E+01
  -6.695  0.7656E+00  0.3515E+01
  -6.690  0.7330E+00  0.3519E+01
  -6.685  0.7061E+00  0.3523E+01
  -6.680  0.6852E+00  0.3526E+01
  -6.675  0.6700E+00  0.3529E+01
  -6.670  0.6602E+00  0.3533E+01
  -6.665  0.6550E+00  0.3536E+01
  -6.660  0.6535E+00  0.3539E+01
  -6.655  0.6546E+00  0.3542E+01
  -6.650  0.6573E+00  0.3546E+01
  -6.645  0.6602E+00  0.3549E+01
  -6.640  0.6622E+00  0.3552E+01
  -6.635  0.6621E+00  0.3556E+01
  -6.630  0.6591E+00  0.3559E+01
  -6.625  0.6524E+00  0.3562E+01
  -6.620  0.6415E+00  0.3565E+01
  -6.615  0.6260E+00  0.3569E+01
  -6.610  0.6059E+00  0.3572E+01
  -6.605  0.5813E+00  0.3574E+01
  -6.600  0.5526E+00  0.3577E+01
  -6.595  0.5204E+00  0.3580E+01
  -6.590  0.4853E+00  0.3582E+01
  -6.585  0.4482E+00  0.3585E+01
  -6.580  0.4097E+00  0.3587E+01
  -6.575  0.3709E+00  0.3588E+01
  -6.570  0.3323E+00  0.3590E+01
  -6.565  0.2948E+00  0.3592E+01
  -6.560  0.2590E+00  0.3593E+01
  -6.555  0.2255E+00  0.3594E+01
  -6.550  0.1946E+00  0.3595E+01
  -6.545  0.1667E+00  0.3596E+01
  -6.540  0.1421E+00  0.3596E+01
  -6.535  0.1208E+00  0.3597E+01
  -6.530  0.1030E+00  0.3598E+01
  -6.525  0.8864E-01  0.3598E+01
  -6.520  0.7773E-01  0.3598E+01
  -6.515  0.7024E-01  0.3599E+01
  -6.510  0.6615E-01  0.3599E+01
  -6.505  0.6543E-01  0.3599E+01
  -6.500  0.6810E-01  0.3600E+01
  -6.495  0.7418E-01  0.3600E+01
  -6.490  0.8373E-01  0.3601E+01
  -6.485  0.9682E-01  0.3601E+01
  -6.480  0.1135E+00  0.3602E+01
  -6.475  0.1339E+00  0.3602E+01
  -6.470  0.1580E+00  0.3603E+01
  -6.465  0.1860E+00  0.3604E+01
  -6.460  0.2176E+00  0.3605E+01
  -6.455  0.2529E+00  0.3606E+01
  -6.450  0.2917E+00  0.3608E+01
  -6.445  0.3338E+00  0.3609E+01
  -6.440  0.3786E+00  0.3611E+01
  -6.435  0.4259E+00  0.3614E+01
  -6.430  0.4750E+00  0.3616E+01
  -6.425  0.5252E+00  0.3619E+01
  -6.420  0.5759E+00  0.3621E+01
  -6.415  0.6261E+00  0.3625E+01
  -6.410  0.6749E+00  0.3628E+01
  -6.405  0.7216E+00  0.3632E+01
  -6.400  0.7650E+00  0.3635E+01
  -6.395  0.8044E+00  0.3639E+01
  -6.390  0.8390E+00  0.3644E+01
  -6.385  0.8678E+00  0.3648E+01
  -6.380  0.8904E+00  0.3652E+01
  -6.375  0.9061E+00  0.3657E+01
  -6.370  0.9146E+00  0.3661E+01
  -6.365  0.9158E+00  0.3666E+01
  -6.360  0.9097E+00  0.3671E+01
  -6.355  0.8964E+00  0.3675E+01
  -6.350  0.8763E+00  0.3679E+01
  -6.345  0.8500E+00  0.3684E+01
  -6.340  0.8183E+00  0.3688E+01
  -6.335  0.7821E+00  0.3692E+01
  -6.330  0.7423E+00  0.3695E+01
  -6.325  0.7000E+00  0.3699E+01
  -6.320  0.6564E+00  0.3702E+01
  -6.315  0.6126E+00  0.3705E+01
  -6.310  0.5699E+00  0.3708E+01
  -6.305  0.5292E+00  0.3711E+01
  -6.300  0.4916E+00  0.3713E+01
  -6.295  0.4580E+00  0.3715E+01
  -6.290  0.4290E+00  0.3718E+01
  -6.285  0.4052E+00  0.3720E+01
  -6.280  0.3871E+00  0.3722E+01
  -6.275  0.3748E+00  0.3723E+01
  -6.270  0.3683E+00  0.3725E+01
  -6.265  0.3675E+00  0.3727E+01
  -6.260  0.3721E+00  0.3729E+01
  -6.255  0.3815E+00  0.3731E+01
  -6.250  0.3952E+00  0.3733E+01
  -6.245  0.4124E+00  0.3735E+01
  -6.240  0.4323E+00  0.3737E+01
  -6.235  0.4539E+00  0.3739E+01
  -6.230  0.4765E+00  0.3742E+01
  -6.225  0.4991E+00  0.3744E+01
  -6.220  0.5209E+00  0.3747E+01
  -6.215  0.5410E+00  0.3750E+01
  -6.210  0.5588E+00  0.3752E+01
  -6.205  0.5737E+00  0.3755E+01
  -6.200  0.5853E+00  0.3758E+01
  -6.195  0.5935E+00  0.3761E+01
  -6.190  0.5981E+00  0.3764E+01
  -6.185  0.5993E+00  0.3767E+01
  -6.180  0.5976E+00  0.3770E+01
  -6.175  0.5934E+00  0.3773E+01
  -6.170  0.5875E+00  0.3776E+01
  -6.165  0.5808E+00  0.3779E+01
  -6.160  0.5742E+00  0.3782E+01
  -6.155  0.5686E+00  0.3785E+01
  -6.150  0.5652E+00  0.3787E+01
  -6.145  0.5649E+00  0.3790E+01
  -6.140  0.5685E+00  0.3793E+01
  -6.135  0.5768E+00  0.3796E+01
  -6.130  0.5902E+00  0.3799E+01
  -6.125  0.6090E+00  0.3802E+01
  -6.120  0.6331E+00  0.3805E+01
  -6.115  0.6623E+00  0.3808E+01
  -6.110  0.6960E+00  0.3812E+01
  -6.105  0.7332E+00  0.3816E+01
  -6.100  0.7730E+00  0.3819E+01
  -6.095  0.8140E+00  0.3824E+01
  -6.090  0.8548E+00  0.3828E+01
  -6.085  0.8938E+00  0.3832E+01
  -6.080  0.9297E+00  0.3837E+01
  -6.075  0.9609E+00  0.3842E+01
  -6.070  0.9863E+00  0.3847E+01
  -6.065  0.1005E+01  0.3852E+01
  -6.060  0.1015E+01  0.3857E+01
  -6.055  0.1018E+01  0.3862E+01
  -6.050  0.1012E+01  0.3867E+01
  -6.045  0.9976E+00  0.3872E+01
  -6.040  0.9758E+00  0.3877E+01
  -6.035  0.9471E+00  0.3882E+01
  -6.030  0.9125E+00  0.3886E+01
  -6.025  0.8734E+00  0.3890E+01
  -6.020  0.8310E+00  0.3895E+01
  -6.015  0.7869E+00  0.3899E+01
  -6.010  0.7426E+00  0.3902E+01
  -6.005  0.6993E+00  0.3906E+01
  -6.000  0.6584E+00  0.3909E+01
  -5.995  0.6209E+00  0.3912E+01
  -5.990  0.5878E+00  0.3915E+01
  -5.985  0.5596E+00  0.3918E+01
  -5.980  0.5367E+00  0.3921E+01
  -5.975  0.5193E+00  0.3923E+01
  -5.970  0.5072E+00  0.3926E+01
  -5.965  0.5003E+00  0.3928E+01
  -5.960  0.4979E+00  0.3931E+01
  -5.955  0.4996E+00  0.3933E+01
  -5.950  0.5045E+00  0.3936E+01
  -5.945  0.5121E+00  0.3938E+01
  -5.940  0.5215E+00  0.3941E+01
  -5.935  0.5320E+00  0.3944E+01
  -5.930  0.5431E+00  0.3946E+01
  -5.925  0.5540E+00  0.3949E+01
  -5.920  0.5644E+00  0.3952E+01
  -5.915  0.5739E+00  0.3955E+01
  -5.910  0.5821E+00  0.3958E+01
  -5.905  0.5889E+00  0.3961E+01
  -5.900  0.5942E+00  0.3964E+01
  -5.895  0.5977E+00  0.3967E+01
  -5.890  0.5994E+00  0.3970E+01
  -5.885  0.5993E+00  0.3973E+01
  -5.880  0.5972E+00  0.3976E+01
  -5.875  0.5930E+00  0.3978E+01
  -5.870  0.5867E+00  0.3981E+01
  -5.865  0.5782E+00  0.3984E+01
  -5.860  0.5672E+00  0.3987E+01
  -5.855  0.5538E+00  0.3990E+01
  -5.850  0.5379E+00  0.3993E+01
  -5.845  0.5195E+00  0.3995E+01
  -5.840  0.4986E+00  0.3998E+01
  -5.835  0.4755E+00  0.4000E+01
  -5.830  0.4503E+00  0.4002E+01
  -5.825  0.4233E+00  0.4004E+01
  -5.820  0.3950E+00  0.4006E+01
  -5.815  0.3656E+00  0.4008E+01
  -5.810  0.3358E+00  0.4010E+01
  -5.805  0.3060E+00  0.4011E+01
  -5.800  0.2767E+00  0.4013E+01
  -5.795  0.2484E+00  0.4014E+01
  -5.790  0.2217E+00  0.4015E+01
  -5.785  0.1970E+00  0.4016E+01
  -5.780  0.1746E+00  0.4017E+01
  -5.775  0.1549E+00  0.4018E+01
  -5.770  0.1383E+00  0.4019E+01
  -5.765  0.1249E+00  0.4019E+01
  -5.760  0.1150E+00  0.4020E+01
  -5.755  0.1086E+00  0.4020E+01
  -5.750  0.1060E+00  0.4021E+01
  -5.745  0.1071E+00  0.4021E+01
  -5.740  0.1120E+00  0.4022E+01
  -5.735  0.1206E+00  0.4022E+01
  -5.730  0.1330E+00  0.4023E+01
  -5.725  0.1489E+00  0.4024E+01
  -5.720  0.1683E+00  0.4025E+01
  -5.715  0.1911E+00  0.4026E+01
  -5.710  0.2169E+00  0.4027E+01
  -5.705  0.2456E+00  0.4028E+01
  -5.700  0.2768E+00  0.4029E+01
  -5.695  0.3104E+00  0.4031E+01
  -5.690  0.3459E+00  0.4033E+01
  -5.685  0.3830E+00  0.4035E+01
  -5.680  0.4215E+00  0.4037E+01
  -5.675  0.4610E+00  0.4039E+01
  -5.670  0.5014E+00  0.4042E+01
  -5.665  0.5425E+00  0.4044E+01
  -5.660  0.5840E+00  0.4047E+01
  -5.655  0.6260E+00  0.4050E+01
  -5.650  0.6684E+00  0.4054E+01
  -5.645  0.7113E+00  0.4057E+01
  -5.640  0.7546E+00  0.4061E+01
  -5.635  0.7983E+00  0.4065E+01
  -5.630  0.8425E+00  0.4069E+01
  -5.625  0.8870E+00  0.4074E+01
  -5.620  0.9318E+00  0.4078E+01
  -5.615  0.9765E+00  0.4083E+01
  -5.610  0.1021E+01  0.4088E+01
  -5.605  0.1064E+01  0.4094E+01
  -5.600  0.1106E+01  0.4099E+01
  -5.595  0.1146E+01  0.4105E+01
  -5.590  0.1184E+01  0.4111E+01
  -5.585  0.1217E+01  0.4117E+01
  -5.580  0.1247E+01  0.4123E+01
  -5.575  0.1271E+01  0.4129E+01
  -5.570  0.1290E+01  0.4136E+01
  -5.565  0.1304E+01  0.4142E+01
  -5.560  0.1311E+01  0.4149E+01
  -5.555  0.1312E+01  0.4155E+01
  -5.550  0.1306E+01  0.4162E+01
  -5.545  0.1295E+01  0.4168E+01
  -5.540  0.1279E+01  0.4175E+01
  -5.535  0.1258E+01  0.4181E+01
  -5.530  0.1232E+01  0.4187E+01
  -5.525  0.1204E+01  0.4193E+01
  -5.520  0.1173E+01  0.4199E+01
  -5.515  0.1140E+01  0.4205E+01
  -5.510  0.1107E+01  0.4210E+01
  -5.505  0.1074E+01  0.4216E+01
  -5.500  0.1041E+01  0.4221E+01
  -5.495  0.1009E+01  0.4226E+01
  -5.490  0.9788E+00  0.4231E+01
  -5.485  0.9501E+00  0.4236E+01
  -5.480  0.9229E+00  0.4240E+01
  -5.475  0.8972E+00  0.4245E+01
  -5.470  0.8728E+00  0.4249E+01
  -5.465  0.8494E+00  0.4253E+01
  -5.460  0.8266E+00  0.4258E+01
  -5.455  0.8042E+00  0.4262E+01
  -5.450  0.7816E+00  0.4265E+01
  -5.445  0.7586E+00  0.4269E+01
  -5.440  0.7348E+00  0.4273E+01
  -5.435  0.7100E+00  0.4277E+01
  -5.430  0.6840E+00  0.4280E+01
  -5.425  0.6568E+00  0.4283E+01
  -5.420  0.6282E+00  0.4286E+01
  -5.415  0.5983E+00  0.4289E+01
  -5.410  0.5674E+00  0.4292E+01
  -5.405  0.5356E+00  0.4295E+01
  -5.400  0.5031E+00  0.4297E+01
  -5.395  0.4704E+00  0.4300E+01
  -5.390  0.4378E+00  0.4302E+01
  -5.385  0.4058E+00  0.4304E+01
  -5.380  0.3746E+00  0.4306E+01
  -5.375  0.3449E+00  0.4308E+01
  -5.370  0.3171E+00  0.4309E+01
  -5.365  0.2915E+00  0.4311E+01
  -5.360  0.2688E+00  0.4312E+01
  -5.355  0.2492E+00  0.4313E+01
  -5.350  0.2333E+00  0.4314E+01
  -5.345  0.2214E+00  0.4315E+01
  -5.340  0.2139E+00  0.4317E+01
  -5.335  0.2110E+00  0.4318E+01
  -5.330  0.2128E+00  0.4319E+01
  -5.325  0.2197E+00  0.4320E+01
  -5.320  0.2315E+00  0.4321E+01
  -5.315  0.2483E+00  0.4322E+01
  -5.310  0.2697E+00  0.4323E+01
  -5.305  0.2957E+00  0.4325E+01
  -5.300  0.3256E+00  0.4327E+01
  -5.295  0.3591E+00  0.4328E+01
  -5.290  0.3954E+00  0.4330E+01
  -5.285  0.4339E+00  0.4333E+01
  -5.280  0.4738E+00  0.4335E+01
  -5.275  0.5142E+00  0.4337E+01
  -5.270  0.5545E+00  0.4340E+01
  -5.265  0.5939E+00  0.4343E+01
  -5.260  0.6316E+00  0.4346E+01
  -5.255  0.6673E+00  0.4350E+01
  -5.250  0.7005E+00  0.4353E+01
  -5.245  0.7310E+00  0.4357E+01
  -5.240  0.7588E+00  0.4361E+01
  -5.235  0.7843E+00  0.4365E+01
  -5.230  0.8078E+00  0.4369E+01
  -5.225  0.8299E+00  0.4373E+01
  -5.220  0.8515E+00  0.4377E+01
  -5.215  0.8733E+00  0.4381E+01
  -5.210  0.8963E+00  0.4386E+01
  -5.205  0.9213E+00  0.4390E+01
  -5.200  0.9492E+00  0.4395E+01
  -5.195  0.9806E+00  0.4400E+01
  -5.190  0.1016E+01  0.4405E+01
  -5.185  0.1056E+01  0.4410E+01
  -5.180  0.1099E+01  0.4416E+01
  -5.175  0.1147E+01  0.4422E+01
  -5.170  0.1198E+01  0.4428E+01
  -5.165  0.1251E+01  0.4434E+01
  -5.160  0.1305E+01  0.4440E+01
  -5.155  0.1360E+01  0.4447E+01
  -5.150  0.1413E+01  0.4454E+01
  -5.145  0.1463E+01  0.4462E+01
  -5.140  0.1510E+01  0.4469E+01
  -5.135  0.1551E+01  0.4477E+01
  -5.130  0.1586E+01  0.4485E+01
  -5.125  0.1613E+01  0.4493E+01
  -5.120  0.1634E+01  0.4501E+01
  -5.115  0.1646E+01  0.4509E+01
  -5.110  0.1650E+01  0.4518E+01
  -5.105  0.1648E+01  0.4526E+01
  -5.100  0.1639E+01  0.4534E+01
  -5.095  0.1624E+01  0.4542E+01
  -5.090  0.1605E+01  0.4550E+01
  -5.085  0.1582E+01  0.4558E+01
  -5.080  0.1557E+01  0.4566E+01
  -5.075  0.1532E+01  0.4574E+01
  -5.070  0.1506E+01  0.4581E+01
  -5.065  0.1482E+01  0.4588E+01
  -5.060  0.1459E+01  0.4596E+01
  -5.055  0.1438E+01  0.4603E+01
  -5.050  0.1420E+01  0.4610E+01
  -5.045  0.1404E+01  0.4617E+01
  -5.040  0.1390E+01  0.4624E+01
  -5.035  0.1378E+01  0.4631E+01
  -5.030  0.1367E+01  0.4638E+01
  -5.025  0.1357E+01  0.4645E+01
  -5.020  0.1346E+01  0.4651E+01
  -5.015  0.1335E+01  0.4658E+01
  -5.010  0.1323E+01  0.4665E+01
  -5.005  0.1309E+01  0.4671E+01
  -5.000  0.1292E+01  0.4678E+01
  -4.995  0.1274E+01  0.4684E+01
  -4.990  0.1253E+01  0.4690E+01
  -4.985  0.1229E+01  0.4696E+01
  -4.980  0.1204E+01  0.4702E+01
  -4.975  0.1176E+01  0.4708E+01
  -4.970  0.1147E+01  0.4714E+01
  -4.965  0.1116E+01  0.4720E+01
  -4.960  0.1085E+01  0.4725E+01
  -4.955  0.1055E+01  0.4730E+01
  -4.950  0.1025E+01  0.4735E+01
  -4.945  0.9968E+00  0.4740E+01
  -4.940  0.9713E+00  0.4745E+01
  -4.935  0.9491E+00  0.4750E+01
  -4.930  0.9308E+00  0.4755E+01
  -4.925  0.9171E+00  0.4759E+01
  -4.920  0.9086E+00  0.4764E+01
  -4.915  0.9056E+00  0.4768E+01
  -4.910  0.9086E+00  0.4773E+01
  -4.905  0.9175E+00  0.4777E+01
  -4.900  0.9324E+00  0.4782E+01
  -4.895  0.9531E+00  0.4787E+01
  -4.890  0.9792E+00  0.4792E+01
  -4.885  0.1010E+01  0.4797E+01
  -4.880  0.1045E+01  0.4802E+01
  -4.875  0.1084E+01  0.4807E+01
  -4.870  0.1125E+01  0.4813E+01
  -4.865  0.1169E+01  0.4819E+01
  -4.860  0.1212E+01  0.4825E+01
  -4.855  0.1256E+01  0.4831E+01
  -4.850  0.1298E+01  0.4838E+01
  -4.845  0.1338E+01  0.4844E+01
  -4.840  0.1375E+01  0.4851E+01
  -4.835  0.1408E+01  0.4858E+01
  -4.830  0.1437E+01  0.4866E+01
  -4.825  0.1461E+01  0.4873E+01
  -4.820  0.1479E+01  0.4880E+01
  -4.815  0.1492E+01  0.4888E+01
  -4.810  0.1500E+01  0.4895E+01
  -4.805  0.1502E+01  0.4903E+01
  -4.800  0.1499E+01  0.4910E+01
  -4.795  0.1492E+01  0.4918E+01
  -4.790  0.1481E+01  0.4925E+01
  -4.785  0.1467E+01  0.4932E+01
  -4.780  0.1452E+01  0.4940E+01
  -4.775  0.1435E+01  0.4947E+01
  -4.770  0.1418E+01  0.4954E+01
  -4.765  0.1402E+01  0.4961E+01
  -4.760  0.1388E+01  0.4968E+01
  -4.755  0.1376E+01  0.4975E+01
  -4.750  0.1368E+01  0.4982E+01
  -4.745  0.1363E+01  0.4988E+01
  -4.740  0.1363E+01  0.4995E+01
  -4.735  0.1367E+01  0.5002E+01
  -4.730  0.1376E+01  0.5009E+01
  -4.725  0.1389E+01  0.5016E+01
  -4.720  0.1406E+01  0.5023E+01
  -4.715  0.1428E+01  0.5030E+01
  -4.710  0.1454E+01  0.5037E+01
  -4.705  0.1483E+01  0.5045E+01
  -4.700  0.1516E+01  0.5052E+01
  -4.695  0.1551E+01  0.5060E+01
  -4.690  0.1590E+01  0.5068E+01
  -4.685  0.1630E+01  0.5076E+01
  -4.680  0.1673E+01  0.5085E+01
  -4.675  0.1716E+01  0.5093E+01
  -4.670  0.1761E+01  0.5102E+01
  -4.665  0.1806E+01  0.5111E+01
  -4.660  0.1850E+01  0.5120E+01
  -4.655  0.1894E+01  0.5130E+01
  -4.650  0.1935E+01  0.5139E+01
  -4.645  0.1974E+01  0.5149E+01
  -4.640  0.2009E+01  0.5159E+01
  -4.635  0.2040E+01  0.5169E+01
  -4.630  0.2064E+01  0.5180E+01
  -4.625  0.2083E+01  0.5190E+01
  -4.620  0.2093E+01  0.5201E+01
  -4.615  0.2096E+01  0.5211E+01
  -4.610  0.2090E+01  0.5222E+01
  -4.605  0.2075E+01  0.5232E+01
  -4.600  0.2051E+01  0.5242E+01
  -4.595  0.2018E+01  0.5252E+01
  -4.590  0.1977E+01  0.5262E+01
  -4.585  0.1928E+01  0.5272E+01
  -4.580  0.1872E+01  0.5281E+01
  -4.575  0.1811E+01  0.5290E+01
  -4.570  0.1744E+01  0.5299E+01
  -4.565  0.1673E+01  0.5307E+01
  -4.560  0.1600E+01  0.5315E+01
  -4.555  0.1524E+01  0.5323E+01
  -4.550  0.1449E+01  0.5330E+01
  -4.545  0.1373E+01  0.5337E+01
  -4.540  0.1299E+01  0.5344E+01
  -4.535  0.1227E+01  0.5350E+01
  -4.530  0.1158E+01  0.5355E+01
  -4.525  0.1093E+01  0.5361E+01
  -4.520  0.1032E+01  0.5366E+01
  -4.515  0.9771E+00  0.5371E+01
  -4.510  0.9278E+00  0.5376E+01
  -4.505  0.8853E+00  0.5380E+01
  -4.500  0.8501E+00  0.5384E+01
  -4.495  0.8228E+00  0.5388E+01
  -4.490  0.8039E+00  0.5392E+01
  -4.485  0.7938E+00  0.5396E+01
  -4.480  0.7924E+00  0.5400E+01
  -4.475  0.8000E+00  0.5404E+01
  -4.470  0.8161E+00  0.5408E+01
  -4.465  0.8402E+00  0.5413E+01
  -4.460  0.8716E+00  0.5417E+01
  -4.455  0.9094E+00  0.5422E+01
  -4.450  0.9523E+00  0.5426E+01
  -4.445  0.9990E+00  0.5431E+01
  -4.440  0.1048E+01  0.5437E+01
  -4.435  0.1098E+01  0.5442E+01
  -4.430  0.1147E+01  0.5448E+01
  -4.425  0.1194E+01  0.5454E+01
  -4.420  0.1237E+01  0.5460E+01
  -4.415  0.1276E+01  0.5466E+01
  -4.410  0.1310E+01  0.5473E+01
  -4.405  0.1337E+01  0.5480E+01
  -4.400  0.1359E+01  0.5486E+01
  -4.395  0.1375E+01  0.5493E+01
  -4.390  0.1385E+01  0.5500E+01
  -4.385  0.1389E+01  0.5507E+01
  -4.380  0.1390E+01  0.5514E+01
  -4.375  0.1387E+01  0.5521E+01
  -4.370  0.1381E+01  0.5528E+01
  -4.365  0.1373E+01  0.5535E+01
  -4.360  0.1365E+01  0.5542E+01
  -4.355  0.1356E+01  0.5548E+01
  -4.350  0.1347E+01  0.5555E+01
  -4.345  0.1338E+01  0.5562E+01
  -4.340  0.1330E+01  0.5568E+01
  -4.335  0.1322E+01  0.5575E+01
  -4.330  0.1314E+01  0.5582E+01
  -4.325  0.1305E+01  0.5588E+01
  -4.320  0.1297E+01  0.5595E+01
  -4.315  0.1287E+01  0.5601E+01
  -4.310  0.1276E+01  0.5607E+01
  -4.305  0.1264E+01  0.5614E+01
  -4.300  0.1251E+01  0.5620E+01
  -4.295  0.1237E+01  0.5626E+01
  -4.290  0.1224E+01  0.5632E+01
  -4.285  0.1211E+01  0.5638E+01
  -4.280  0.1199E+01  0.5644E+01
  -4.275  0.1190E+01  0.5650E+01
  -4.270  0.1184E+01  0.5656E+01
  -4.265  0.1182E+01  0.5662E+01
  -4.260  0.1185E+01  0.5668E+01
  -4.255  0.1193E+01  0.5674E+01
  -4.250  0.1205E+01  0.5680E+01
  -4.245  0.1223E+01  0.5686E+01
  -4.240  0.1246E+01  0.5692E+01
  -4.235  0.1271E+01  0.5699E+01
  -4.230  0.1299E+01  0.5705E+01
  -4.225  0.1329E+01  0.5712E+01
  -4.220  0.1357E+01  0.5719E+01
  -4.215  0.1384E+01  0.5726E+01
  -4.210  0.1406E+01  0.5733E+01
  -4.205  0.1424E+01  0.5740E+01
  -4.200  0.1435E+01  0.5747E+01
  -4.195  0.1440E+01  0.5754E+01
  -4.190  0.1436E+01  0.5761E+01
  -4.185  0.1424E+01  0.5768E+01
  -4.180  0.1405E+01  0.5775E+01
  -4.175  0.1378E+01  0.5782E+01
  -4.170  0.1344E+01  0.5789E+01
  -4.165  0.1305E+01  0.5796E+01
  -4.160  0.1262E+01  0.5802E+01
  -4.155  0.1215E+01  0.5808E+01
  -4.150  0.1167E+01  0.5814E+01
  -4.145  0.1119E+01  0.5819E+01
  -4.140  0.1072E+01  0.5825E+01
  -4.135  0.1027E+01  0.5830E+01
  -4.130  0.9847E+00  0.5835E+01
  -4.125  0.9463E+00  0.5840E+01
  -4.120  0.9122E+00  0.5844E+01
  -4.115  0.8826E+00  0.5849E+01
  -4.110  0.8576E+00  0.5853E+01
  -4.105  0.8372E+00  0.5857E+01
  -4.100  0.8212E+00  0.5861E+01
  -4.095  0.8094E+00  0.5865E+01
  -4.090  0.8014E+00  0.5869E+01
  -4.085  0.7969E+00  0.5873E+01
  -4.080  0.7957E+00  0.5877E+01
  -4.075  0.7975E+00  0.5881E+01
  -4.070  0.8021E+00  0.5885E+01
  -4.065  0.8094E+00  0.5889E+01
  -4.060  0.8194E+00  0.5893E+01
  -4.055  0.8319E+00  0.5897E+01
  -4.050  0.8471E+00  0.5902E+01
  -4.045  0.8649E+00  0.5906E+01
  -4.040  0.8854E+00  0.5910E+01
  -4.035  0.9086E+00  0.5915E+01
  -4.030  0.9345E+00  0.5920E+01
  -4.025  0.9630E+00  0.5924E+01
  -4.020  0.9940E+00  0.5929E+01
  -4.015  0.1027E+01  0.5935E+01
  -4.010  0.1062E+01  0.5940E+01
  -4.005  0.1099E+01  0.5945E+01
  -4.000  0.1136E+01  0.5951E+01
  -3.995  0.1173E+01  0.5957E+01
  -3.990  0.1210E+01  0.5963E+01
  -3.985  0.1246E+01  0.5969E+01
  -3.980  0.1280E+01  0.5976E+01
  -3.975  0.1311E+01  0.5982E+01
  -3.970  0.1337E+01  0.5989E+01
  -3.965  0.1359E+01  0.5996E+01
  -3.960  0.1375E+01  0.6002E+01
  -3.955  0.1385E+01  0.6009E+01
  -3.950  0.1388E+01  0.6016E+01
  -3.945  0.1384E+01  0.6023E+01
  -3.940  0.1372E+01  0.6030E+01
  -3.935  0.1353E+01  0.6037E+01
  -3.930  0.1326E+01  0.6044E+01
  -3.925  0.1293E+01  0.6050E+01
  -3.920  0.1253E+01  0.6056E+01
  -3.915  0.1208E+01  0.6062E+01
  -3.910  0.1158E+01  0.6068E+01
  -3.905  0.1105E+01  0.6074E+01
  -3.900  0.1050E+01  0.6079E+01
  -3.895  0.9945E+00  0.6084E+01
  -3.890  0.9389E+00  0.6089E+01
  -3.885  0.8849E+00  0.6093E+01
  -3.880  0.8335E+00  0.6097E+01
  -3.875  0.7857E+00  0.6101E+01
  -3.870  0.7421E+00  0.6105E+01
  -3.865  0.7036E+00  0.6108E+01
  -3.860  0.6703E+00  0.6112E+01
  -3.855  0.6427E+00  0.6115E+01
  -3.850  0.6207E+00  0.6118E+01
  -3.845  0.6042E+00  0.6121E+01
  -3.840  0.5929E+00  0.6124E+01
  -3.835  0.5864E+00  0.6127E+01
  -3.830  0.5841E+00  0.6130E+01
  -3.825  0.5856E+00  0.6133E+01
  -3.820  0.5901E+00  0.6136E+01
  -3.815  0.5972E+00  0.6139E+01
  -3.810  0.6061E+00  0.6142E+01
  -3.805  0.6165E+00  0.6145E+01
  -3.800  0.6277E+00  0.6148E+01
  -3.795  0.6396E+00  0.6151E+01
  -3.790  0.6516E+00  0.6154E+01
  -3.785  0.6638E+00  0.6158E+01
  -3.780  0.6760E+00  0.6161E+01
  -3.775  0.6882E+00  0.6165E+01
  -3.770  0.7003E+00  0.6168E+01
  -3.765  0.7126E+00  0.6172E+01
  -3.760  0.7252E+00  0.6175E+01
  -3.755  0.7383E+00  0.6179E+01
  -3.750  0.7521E+00  0.6183E+01
  -3.745  0.7669E+00  0.6186E+01
  -3.740  0.7830E+00  0.6190E+01
  -3.735  0.8007E+00  0.6194E+01
  -3.730  0.8203E+00  0.6199E+01
  -3.725  0.8421E+00  0.6203E+01
  -3.720  0.8666E+00  0.6207E+01
  -3.715  0.8939E+00  0.6212E+01
  -3.710  0.9244E+00  0.6216E+01
  -3.705  0.9583E+00  0.6221E+01
  -3.700  0.9957E+00  0.6226E+01
  -3.695  0.1037E+01  0.6231E+01
  -3.690  0.1081E+01  0.6237E+01
  -3.685  0.1129E+01  0.6242E+01
  -3.680  0.1180E+01  0.6248E+01
  -3.675  0.1233E+01  0.6254E+01
  -3.670  0.1288E+01  0.6261E+01
  -3.665  0.1343E+01  0.6267E+01
  -3.660  0.1398E+01  0.6274E+01
  -3.655  0.1451E+01  0.6282E+01
  -3.650  0.1501E+01  0.6289E+01
  -3.645  0.1547E+01  0.6297E+01
  -3.640  0.1587E+01  0.6305E+01
  -3.635  0.1620E+01  0.6313E+01
  -3.630  0.1644E+01  0.6321E+01
  -3.625  0.1659E+01  0.6329E+01
  -3.620  0.1665E+01  0.6338E+01
  -3.615  0.1659E+01  0.6346E+01
  -3.610  0.1644E+01  0.6354E+01
  -3.605  0.1618E+01  0.6362E+01
  -3.600  0.1582E+01  0.6370E+01
  -3.595  0.1538E+01  0.6378E+01
  -3.590  0.1485E+01  0.6385E+01
  -3.585  0.1427E+01  0.6392E+01
  -3.580  0.1363E+01  0.6399E+01
  -3.575  0.1296E+01  0.6406E+01
  -3.570  0.1227E+01  0.6412E+01
  -3.565  0.1158E+01  0.6418E+01
  -3.560  0.1090E+01  0.6423E+01
  -3.555  0.1024E+01  0.6428E+01
  -3.550  0.9616E+00  0.6433E+01
  -3.545  0.9029E+00  0.6438E+01
  -3.540  0.8485E+00  0.6442E+01
  -3.535  0.7985E+00  0.6446E+01
  -3.530  0.7529E+00  0.6450E+01
  -3.525  0.7115E+00  0.6453E+01
  -3.520  0.6739E+00  0.6457E+01
  -3.515  0.6396E+00  0.6460E+01
  -3.510  0.6081E+00  0.6463E+01
  -3.505  0.5792E+00  0.6466E+01
  -3.500  0.5523E+00  0.6468E+01
  -3.495  0.5274E+00  0.6471E+01
  -3.490  0.5043E+00  0.6474E+01
  -3.485  0.4831E+00  0.6476E+01
  -3.480  0.4641E+00  0.6478E+01
  -3.475  0.4476E+00  0.6481E+01
  -3.470  0.4342E+00  0.6483E+01
  -3.465  0.4244E+00  0.6485E+01
  -3.460  0.4188E+00  0.6487E+01
  -3.455  0.4181E+00  0.6489E+01
  -3.450  0.4228E+00  0.6491E+01
  -3.445  0.4334E+00  0.6493E+01
  -3.440  0.4503E+00  0.6496E+01
  -3.435  0.4737E+00  0.6498E+01
  -3.430  0.5036E+00  0.6500E+01
  -3.425  0.5398E+00  0.6503E+01
  -3.420  0.5818E+00  0.6506E+01
  -3.415  0.6291E+00  0.6509E+01
  -3.410  0.6807E+00  0.6513E+01
  -3.405  0.7357E+00  0.6516E+01
  -3.400  0.7926E+00  0.6520E+01
  -3.395  0.8503E+00  0.6525E+01
  -3.390  0.9070E+00  0.6529E+01
  -3.385  0.9614E+00  0.6534E+01
  -3.380  0.1012E+01  0.6539E+01
  -3.375  0.1057E+01  0.6544E+01
  -3.370  0.1095E+01  0.6550E+01
  -3.365  0.1126E+01  0.6555E+01
  -3.360  0.1148E+01  0.6561E+01
  -3.355  0.1160E+01  0.6567E+01
  -3.350  0.1163E+01  0.6573E+01
  -3.345  0.1156E+01  0.6578E+01
  -3.340  0.1140E+01  0.6584E+01
  -3.335  0.1115E+01  0.6590E+01
  -3.330  0.1083E+01  0.6595E+01
  -3.325  0.1044E+01  0.6600E+01
  -3.320  0.1001E+01  0.6605E+01
  -3.315  0.9539E+00  0.6610E+01
  -3.310  0.9059E+00  0.6615E+01
  -3.305  0.8581E+00  0.6619E+01
  -3.300  0.8124E+00  0.6623E+01
  -3.295  0.7703E+00  0.6627E+01
  -3.290  0.7330E+00  0.6631E+01
  -3.285  0.7017E+00  0.6634E+01
  -3.280  0.6774E+00  0.6637E+01
  -3.275  0.6604E+00  0.6641E+01
  -3.270  0.6511E+00  0.6644E+01
  -3.265  0.6494E+00  0.6647E+01
  -3.260  0.6549E+00  0.6650E+01
  -3.255  0.6672E+00  0.6654E+01
  -3.250  0.6854E+00  0.6657E+01
  -3.245  0.7086E+00  0.6661E+01
  -3.240  0.7357E+00  0.6664E+01
  -3.235  0.7658E+00  0.6668E+01
  -3.230  0.7977E+00  0.6672E+01
  -3.225  0.8304E+00  0.6676E+01
  -3.220  0.8630E+00  0.6681E+01
  -3.215  0.8945E+00  0.6685E+01
  -3.210  0.9244E+00  0.6690E+01
  -3.205  0.9520E+00  0.6695E+01
  -3.200  0.9770E+00  0.6699E+01
  -3.195  0.9991E+00  0.6704E+01
  -3.190  0.1018E+01  0.6710E+01
  -3.185  0.1034E+01  0.6715E+01
  -3.180  0.1047E+01  0.6720E+01
  -3.175  0.1057E+01  0.6725E+01
  -3.170  0.1064E+01  0.6731E+01
  -3.165  0.1069E+01  0.6736E+01
  -3.160  0.1073E+01  0.6741E+01
  -3.155  0.1074E+01  0.6747E+01
  -3.150  0.1075E+01  0.6752E+01
  -3.145  0.1075E+01  0.6757E+01
  -3.140  0.1076E+01  0.6763E+01
  -3.135  0.1076E+01  0.6768E+01
  -3.130  0.1078E+01  0.6774E+01
  -3.125  0.1081E+01  0.6779E+01
  -3.120  0.1086E+01  0.6784E+01
  -3.115  0.1093E+01  0.6790E+01
  -3.110  0.1103E+01  0.6795E+01
  -3.105  0.1114E+01  0.6801E+01
  -3.100  0.1127E+01  0.6807E+01
  -3.095  0.1142E+01  0.6812E+01
  -3.090  0.1157E+01  0.6818E+01
  -3.085  0.1173E+01  0.6824E+01
  -3.080  0.1188E+01  0.6830E+01
  -3.075  0.1201E+01  0.6836E+01
  -3.070  0.1211E+01  0.6842E+01
  -3.065  0.1218E+01  0.6848E+01
  -3.060  0.1219E+01  0.6854E+01
  -3.055  0.1215E+01  0.6860E+01
  -3.050  0.1203E+01  0.6866E+01
  -3.045  0.1185E+01  0.6872E+01
  -3.040  0.1159E+01  0.6878E+01
  -3.035  0.1126E+01  0.6884E+01
  -3.030  0.1085E+01  0.6889E+01
  -3.025  0.1038E+01  0.6894E+01
  -3.020  0.9842E+00  0.6899E+01
  -3.015  0.9261E+00  0.6904E+01
  -3.010  0.8642E+00  0.6908E+01
  -3.005  0.8000E+00  0.6912E+01
  -3.000  0.7350E+00  0.6916E+01
  -2.995  0.6704E+00  0.6919E+01
  -2.990  0.6077E+00  0.6922E+01
  -2.985  0.5483E+00  0.6925E+01
  -2.980  0.4932E+00  0.6927E+01
  -2.975  0.4435E+00  0.6930E+01
  -2.970  0.4000E+00  0.6932E+01
  -2.965  0.3634E+00  0.6933E+01
  -2.960  0.3341E+00  0.6935E+01
  -2.955  0.3124E+00  0.6937E+01
  -2.950  0.2983E+00  0.6938E+01
  -2.945  0.2918E+00  0.6940E+01
  -2.940  0.2925E+00  0.6941E+01
  -2.935  0.3001E+00  0.6943E+01
  -2.930  0.3141E+00  0.6944E+01
  -2.925  0.3337E+00  0.6946E+01
  -2.920  0.3582E+00  0.6948E+01
  -2.915  0.3870E+00  0.6949E+01
  -2.910  0.4190E+00  0.6952E+01
  -2.905  0.4535E+00  0.6954E+01
  -2.900  0.4897E+00  0.6956E+01
  -2.895  0.5267E+00  0.6959E+01
  -2.890  0.5638E+00  0.6962E+01
  -2.885  0.6005E+00  0.6965E+01
  -2.880  0.6361E+00  0.6968E+01
  -2.875  0.6703E+00  0.6971E+01
  -2.870  0.7028E+00  0.6975E+01
  -2.865  0.7336E+00  0.6978E+01
  -2.860  0.7626E+00  0.6982E+01
  -2.855  0.7900E+00  0.6986E+01
  -2.850  0.8160E+00  0.6990E+01
  -2.845  0.8410E+00  0.6995E+01
  -2.840  0.8652E+00  0.6999E+01
  -2.835  0.8891E+00  0.7003E+01
  -2.830  0.9129E+00  0.7008E+01
  -2.825  0.9368E+00  0.7013E+01
  -2.820  0.9609E+00  0.7017E+01
  -2.815  0.9853E+00  0.7022E+01
  -2.810  0.1010E+01  0.7027E+01
  -2.805  0.1034E+01  0.7032E+01
  -2.800  0.1058E+01  0.7038E+01
  -2.795  0.1081E+01  0.7043E+01
  -2.790  0.1103E+01  0.7049E+01
  -2.785  0.1122E+01  0.7054E+01
  -2.780  0.1139E+01  0.7060E+01
  -2.775  0.1153E+01  0.7066E+01
  -2.770  0.1165E+01  0.7072E+01
  -2.765  0.1172E+01  0.7077E+01
  -2.760  0.1177E+01  0.7083E+01
  -2.755  0.1178E+01  0.7089E+01
  -2.750  0.1176E+01  0.7095E+01
  -2.745  0.1172E+01  0.7101E+01
  -2.740  0.1166E+01  0.7107E+01
  -2.735  0.1158E+01  0.7113E+01
  -2.730  0.1150E+01  0.7118E+01
  -2.725  0.1141E+01  0.7124E+01
  -2.720  0.1132E+01  0.7130E+01
  -2.715  0.1122E+01  0.7135E+01
  -2.710  0.1114E+01  0.7141E+01
  -2.705  0.1105E+01  0.7146E+01
  -2.700  0.1097E+01  0.7152E+01
  -2.695  0.1088E+01  0.7157E+01
  -2.690  0.1079E+01  0.7163E+01
  -2.685  0.1068E+01  0.7168E+01
  -2.680  0.1056E+01  0.7173E+01
  -2.675  0.1043E+01  0.7179E+01
  -2.670  0.1026E+01  0.7184E+01
  -2.665  0.1008E+01  0.7189E+01
  -2.660  0.9863E+00  0.7194E+01
  -2.655  0.9626E+00  0.7198E+01
  -2.650  0.9368E+00  0.7203E+01
  -2.645  0.9092E+00  0.7208E+01
  -2.640  0.8805E+00  0.7212E+01
  -2.635  0.8512E+00  0.7216E+01
  -2.630  0.8219E+00  0.7220E+01
  -2.625  0.7933E+00  0.7224E+01
  -2.620  0.7659E+00  0.7228E+01
  -2.615  0.7401E+00  0.7232E+01
  -2.610  0.7162E+00  0.7236E+01
  -2.605  0.6943E+00  0.7239E+01
  -2.600  0.6744E+00  0.7242E+01
  -2.595  0.6562E+00  0.7246E+01
  -2.590  0.6395E+00  0.7249E+01
  -2.585  0.6238E+00  0.7252E+01
  -2.580  0.6086E+00  0.7255E+01
  -2.575  0.5933E+00  0.7258E+01
  -2.570  0.5775E+00  0.7261E+01
  -2.565  0.5607E+00  0.7264E+01
  -2.560  0.5426E+00  0.7266E+01
  -2.555  0.5229E+00  0.7269E+01
  -2.550  0.5016E+00  0.7272E+01
  -2.545  0.4787E+00  0.7274E+01
  -2.540  0.4545E+00  0.7276E+01
  -2.535  0.4294E+00  0.7278E+01
  -2.530  0.4038E+00  0.7280E+01
  -2.525  0.3784E+00  0.7282E+01
  -2.520  0.3537E+00  0.7284E+01
  -2.515  0.3304E+00  0.7286E+01
  -2.510  0.3091E+00  0.7287E+01
  -2.505  0.2906E+00  0.7289E+01
  -2.500  0.2752E+00  0.7290E+01
  -2.495  0.2635E+00  0.7291E+01
  -2.490  0.2558E+00  0.7293E+01
  -2.485  0.2522E+00  0.7294E+01
  -2.480  0.2527E+00  0.7295E+01
  -2.475  0.2573E+00  0.7296E+01
  -2.470  0.2656E+00  0.7298E+01
  -2.465  0.2774E+00  0.7299E+01
  -2.460  0.2920E+00  0.7301E+01
  -2.455  0.3089E+00  0.7302E+01
  -2.450  0.3274E+00  0.7304E+01
  -2.445  0.3467E+00  0.7306E+01
  -2.440  0.3663E+00  0.7307E+01
  -2.435  0.3853E+00  0.7309E+01
  -2.430  0.4033E+00  0.7311E+01
  -2.425  0.4196E+00  0.7313E+01
  -2.420  0.4340E+00  0.7316E+01
  -2.415  0.4462E+00  0.7318E+01
  -2.410  0.4563E+00  0.7320E+01
  -2.405  0.4642E+00  0.7322E+01
  -2.400  0.4704E+00  0.7325E+01
  -2.395  0.4753E+00  0.7327E+01
  -2.390  0.4795E+00  0.7330E+01
  -2.385  0.4837E+00  0.7332E+01
  -2.380  0.4886E+00  0.7334E+01
  -2.375  0.4951E+00  0.7337E+01
  -2.370  0.5038E+00  0.7339E+01
  -2.365  0.5154E+00  0.7342E+01
  -2.360  0.5306E+00  0.7345E+01
  -2.355  0.5497E+00  0.7347E+01
  -2.350  0.5729E+00  0.7350E+01
  -2.345  0.6004E+00  0.7353E+01
  -2.340  0.6318E+00  0.7356E+01
  -2.335  0.6670E+00  0.7360E+01
  -2.330  0.7054E+00  0.7363E+01
  -2.325  0.7463E+00  0.7367E+01
  -2.320  0.7889E+00  0.7371E+01
  -2.315  0.8324E+00  0.7375E+01
  -2.310  0.8759E+00  0.7379E+01
  -2.305  0.9183E+00  0.7384E+01
  -2.300  0.9589E+00  0.7389E+01
  -2.295  0.9967E+00  0.7394E+01
  -2.290  0.1031E+01  0.7399E+01
  -2.285  0.1061E+01  0.7404E+01
  -2.280  0.1087E+01  0.7410E+01
  -2.275  0.1108E+01  0.7415E+01
  -2.270  0.1123E+01  0.7421E+01
  -2.265  0.1133E+01  0.7427E+01
  -2.260  0.1138E+01  0.7432E+01
  -2.255  0.1138E+01  0.7438E+01
  -2.250  0.1133E+01  0.7444E+01
  -2.245  0.1124E+01  0.7449E+01
  -2.240  0.1111E+01  0.7455E+01
  -2.235  0.1095E+01  0.7460E+01
  -2.230  0.1075E+01  0.7466E+01
  -2.225  0.1054E+01  0.7471E+01
  -2.220  0.1031E+01  0.7476E+01
  -2.215  0.1007E+01  0.7481E+01
  -2.210  0.9823E+00  0.7486E+01
  -2.205  0.9582E+00  0.7491E+01
  -2.200  0.9348E+00  0.7495E+01
  -2.195  0.9126E+00  0.7500E+01
  -2.190  0.8921E+00  0.7504E+01
  -2.185  0.8735E+00  0.7509E+01
  -2.180  0.8572E+00  0.7513E+01
  -2.175  0.8432E+00  0.7517E+01
  -2.170  0.8317E+00  0.7522E+01
  -2.165  0.8225E+00  0.7526E+01
  -2.160  0.8156E+00  0.7530E+01
  -2.155  0.8107E+00  0.7534E+01
  -2.150  0.8075E+00  0.7538E+01
  -2.145  0.8056E+00  0.7542E+01
  -2.140  0.8047E+00  0.7546E+01
  -2.135  0.8042E+00  0.7550E+01
  -2.130  0.8037E+00  0.7554E+01
  -2.125  0.8028E+00  0.7558E+01
  -2.120  0.8009E+00  0.7562E+01
  -2.115  0.7976E+00  0.7566E+01
  -2.110  0.7924E+00  0.7570E+01
  -2.105  0.7850E+00  0.7574E+01
  -2.100  0.7751E+00  0.7578E+01
  -2.095  0.7623E+00  0.7581E+01
  -2.090  0.7467E+00  0.7585E+01
  -2.085  0.7280E+00  0.7589E+01
  -2.080  0.7064E+00  0.7592E+01
  -2.075  0.6819E+00  0.7596E+01
  -2.070  0.6549E+00  0.7599E+01
  -2.065  0.6258E+00  0.7602E+01
  -2.060  0.5949E+00  0.7605E+01
  -2.055  0.5628E+00  0.7608E+01
  -2.050  0.5301E+00  0.7611E+01
  -2.045  0.4975E+00  0.7613E+01
  -2.040  0.4655E+00  0.7615E+01
  -2.035  0.4349E+00  0.7618E+01
  -2.030  0.4062E+00  0.7620E+01
  -2.025  0.3800E+00  0.7622E+01
  -2.020  0.3566E+00  0.7623E+01
  -2.015  0.3366E+00  0.7625E+01
  -2.010  0.3201E+00  0.7627E+01
  -2.005  0.3073E+00  0.7628E+01
  -2.000  0.2985E+00  0.7630E+01
  -1.995  0.2934E+00  0.7631E+01
  -1.990  0.2922E+00  0.7633E+01
  -1.985  0.2948E+00  0.7634E+01
  -1.980  0.3010E+00  0.7636E+01
  -1.975  0.3108E+00  0.7637E+01
  -1.970  0.3242E+00  0.7639E+01
  -1.965  0.3411E+00  0.7640E+01
  -1.960  0.3617E+00  0.7642E+01
  -1.955  0.3858E+00  0.7644E+01
  -1.950  0.4139E+00  0.7646E+01
  -1.945  0.4458E+00  0.7648E+01
  -1.940  0.4820E+00  0.7651E+01
  -1.935  0.5224E+00  0.7653E+01
  -1.930  0.5673E+00  0.7656E+01
  -1.925  0.6165E+00  0.7659E+01
  -1.920  0.6699E+00  0.7663E+01
  -1.915  0.7273E+00  0.7666E+01
  -1.910  0.7881E+00  0.7670E+01
  -1.905  0.8516E+00  0.7675E+01
  -1.900  0.9170E+00  0.7679E+01
  -1.895  0.9830E+00  0.7684E+01
  -1.890  0.1049E+01  0.7689E+01
  -1.885  0.1112E+01  0.7695E+01
  -1.880  0.1172E+01  0.7701E+01
  -1.875  0.1226E+01  0.7707E+01
  -1.870  0.1274E+01  0.7713E+01
  -1.865  0.1314E+01  0.7720E+01
  -1.860  0.1344E+01  0.7727E+01
  -1.855  0.1364E+01  0.7733E+01
  -1.850  0.1372E+01  0.7740E+01
  -1.845  0.1368E+01  0.7747E+01
  -1.840  0.1351E+01  0.7754E+01
  -1.835  0.1323E+01  0.7760E+01
  -1.830  0.1284E+01  0.7767E+01
  -1.825  0.1234E+01  0.7773E+01
  -1.820  0.1175E+01  0.7779E+01
  -1.815  0.1109E+01  0.7784E+01
  -1.810  0.1036E+01  0.7790E+01
  -1.805  0.9581E+00  0.7794E+01
  -1.800  0.8779E+00  0.7799E+01
  -1.795  0.7967E+00  0.7803E+01
  -1.790  0.7161E+00  0.7806E+01
  -1.785  0.6376E+00  0.7810E+01
  -1.780  0.5625E+00  0.7812E+01
  -1.775  0.4919E+00  0.7815E+01
  -1.770  0.4266E+00  0.7817E+01
  -1.765  0.3673E+00  0.7819E+01
  -1.760  0.3144E+00  0.7820E+01
  -1.755  0.2680E+00  0.7822E+01
  -1.750  0.2283E+00  0.7823E+01
  -1.745  0.1950E+00  0.7824E+01
  -1.740  0.1680E+00  0.7825E+01
  -1.735  0.1469E+00  0.7825E+01
  -1.730  0.1313E+00  0.7826E+01
  -1.725  0.1206E+00  0.7827E+01
  -1.720  0.1144E+00  0.7827E+01
  -1.715  0.1122E+00  0.7828E+01
  -1.710  0.1133E+00  0.7828E+01
  -1.705  0.1174E+00  0.7829E+01
  -1.700  0.1237E+00  0.7830E+01
  -1.695  0.1319E+00  0.7830E+01
  -1.690  0.1413E+00  0.7831E+01
  -1.685  0.1514E+00  0.7832E+01
  -1.680  0.1618E+00  0.7833E+01
  -1.675  0.1720E+00  0.7833E+01
  -1.670  0.1814E+00  0.7834E+01
  -1.665  0.1898E+00  0.7835E+01
  -1.660  0.1968E+00  0.7836E+01
  -1.655  0.2022E+00  0.7837E+01
  -1.650  0.2056E+00  0.7838E+01
  -1.645  0.2071E+00  0.7839E+01
  -1.640  0.2065E+00  0.7840E+01
  -1.635  0.2039E+00  0.7841E+01
  -1.630  0.1996E+00  0.7842E+01
  -1.625  0.1936E+00  0.7843E+01
  -1.620  0.1863E+00  0.7844E+01
  -1.615  0.1780E+00  0.7845E+01
  -1.610  0.1692E+00  0.7846E+01
  -1.605  0.1602E+00  0.7847E+01
  -1.600  0.1517E+00  0.7848E+01
  -1.595  0.1439E+00  0.7848E+01
  -1.590  0.1374E+00  0.7849E+01
  -1.585  0.1326E+00  0.7850E+01
  -1.580  0.1299E+00  0.7850E+01
  -1.575  0.1297E+00  0.7851E+01
  -1.570  0.1322E+00  0.7852E+01
  -1.565  0.1376E+00  0.7852E+01
  -1.560  0.1461E+00  0.7853E+01
  -1.555  0.1576E+00  0.7854E+01
  -1.550  0.1722E+00  0.7855E+01
  -1.545  0.1898E+00  0.7856E+01
  -1.540  0.2100E+00  0.7857E+01
  -1.535  0.2325E+00  0.7858E+01
  -1.530  0.2570E+00  0.7859E+01
  -1.525  0.2830E+00  0.7860E+01
  -1.520  0.3101E+00  0.7862E+01
  -1.515  0.3375E+00  0.7864E+01
  -1.510  0.3649E+00  0.7866E+01
  -1.505  0.3917E+00  0.7868E+01
  -1.500  0.4174E+00  0.7870E+01
  -1.495  0.4416E+00  0.7872E+01
  -1.490  0.4639E+00  0.7874E+01
  -1.485  0.4840E+00  0.7877E+01
  -1.480  0.5019E+00  0.7879E+01
  -1.475  0.5173E+00  0.7882E+01
  -1.470  0.5304E+00  0.7884E+01
  -1.465  0.5412E+00  0.7887E+01
  -1.460  0.5498E+00  0.7890E+01
  -1.455  0.5564E+00  0.7893E+01
  -1.450  0.5612E+00  0.7895E+01
  -1.445  0.5642E+00  0.7898E+01
  -1.440  0.5657E+00  0.7901E+01
  -1.435  0.5656E+00  0.7904E+01
  -1.430  0.5640E+00  0.7907E+01
  -1.425  0.5607E+00  0.7909E+01
  -1.420  0.5557E+00  0.7912E+01
  -1.415  0.5488E+00  0.7915E+01
  -1.410  0.5399E+00  0.7918E+01
  -1.405  0.5288E+00  0.7920E+01
  -1.400  0.5153E+00  0.7923E+01
  -1.395  0.4994E+00  0.7925E+01
  -1.390  0.4811E+00  0.7928E+01
  -1.385  0.4603E+00  0.7930E+01
  -1.380  0.4374E+00  0.7932E+01
  -1.375  0.4124E+00  0.7934E+01
  -1.370  0.3857E+00  0.7936E+01
  -1.365  0.3578E+00  0.7938E+01
  -1.360  0.3290E+00  0.7940E+01
  -1.355  0.2998E+00  0.7941E+01
  -1.350  0.2708E+00  0.7943E+01
  -1.345  0.2422E+00  0.7944E+01
  -1.340  0.2147E+00  0.7945E+01
  -1.335  0.1885E+00  0.7946E+01
  -1.330  0.1640E+00  0.7947E+01
  -1.325  0.1414E+00  0.7947E+01
  -1.320  0.1210E+00  0.7948E+01
  -1.315  0.1029E+00  0.7948E+01
  -1.310  0.8702E-01  0.7949E+01
  -1.305  0.7354E-01  0.7949E+01
  -1.300  0.6237E-01  0.7950E+01
  -1.295  0.5347E-01  0.7950E+01
  -1.290  0.4675E-01  0.7950E+01
  -1.285  0.4212E-01  0.7950E+01
  -1.280  0.3950E-01  0.7950E+01
  -1.275  0.3880E-01  0.7951E+01
  -1.270  0.3991E-01  0.7951E+01
  -1.265  0.4276E-01  0.7951E+01
  -1.260  0.4725E-01  0.7951E+01
  -1.255  0.5330E-01  0.7952E+01
  -1.250  0.6079E-01  0.7952E+01
  -1.245  0.6961E-01  0.7952E+01
  -1.240  0.7962E-01  0.7953E+01
  -1.235  0.9064E-01  0.7953E+01
  -1.230  0.1025E+00  0.7954E+01
  -1.225  0.1149E+00  0.7954E+01
  -1.220  0.1277E+00  0.7955E+01
  -1.215  0.1405E+00  0.7955E+01
  -1.210  0.1530E+00  0.7956E+01
  -1.205  0.1649E+00  0.7957E+01
  -1.200  0.1759E+00  0.7958E+01
  -1.195  0.1858E+00  0.7959E+01
  -1.190  0.1941E+00  0.7960E+01
  -1.185  0.2008E+00  0.7961E+01
  -1.180  0.2056E+00  0.7962E+01
  -1.175  0.2085E+00  0.7963E+01
  -1.170  0.2095E+00  0.7964E+01
  -1.165  0.2085E+00  0.7965E+01
  -1.160  0.2058E+00  0.7966E+01
  -1.155  0.2015E+00  0.7967E+01
  -1.150  0.1960E+00  0.7968E+01
  -1.145  0.1896E+00  0.7969E+01
  -1.140  0.1826E+00  0.7970E+01
  -1.135  0.1755E+00  0.7971E+01
  -1.130  0.1686E+00  0.7972E+01
  -1.125  0.1623E+00  0.7972E+01
  -1.120  0.1569E+00  0.7973E+01
  -1.115  0.1528E+00  0.7974E+01
  -1.110  0.1501E+00  0.7975E+01
  -1.105  0.1491E+00  0.7975E+01
  -1.100  0.1496E+00  0.7976E+01
  -1.095  0.1518E+00  0.7977E+01
  -1.090  0.1555E+00  0.7978E+01
  -1.085  0.1605E+00  0.7979E+01
  -1.080  0.1666E+00  0.7979E+01
  -1.075  0.1734E+00  0.7980E+01
  -1.070  0.1805E+00  0.7981E+01
  -1.065  0.1875E+00  0.7982E+01
  -1.060  0.1942E+00  0.7983E+01
  -1.055  0.2000E+00  0.7984E+01
  -1.050  0.2047E+00  0.7985E+01
  -1.045  0.2079E+00  0.7986E+01
  -1.040  0.2094E+00  0.7987E+01
  -1.035  0.2090E+00  0.7988E+01
  -1.030  0.2067E+00  0.7989E+01
  -1.025  0.2024E+00  0.7990E+01
  -1.020  0.1963E+00  0.7991E+01
  -1.015  0.1884E+00  0.7992E+01
  -1.010  0.1789E+00  0.7993E+01
  -1.005  0.1682E+00  0.7994E+01
  -1.000  0.1564E+00  0.7995E+01
  -0.995  0.1439E+00  0.7995E+01
  -0.990  0.1310E+00  0.7996E+01
  -0.985  0.1180E+00  0.7997E+01
  -0.980  0.1052E+00  0.7997E+01
  -0.975  0.9275E-01  0.7998E+01
  -0.970  0.8090E-01  0.7998E+01
  -0.965  0.6980E-01  0.7998E+01
  -0.960  0.5959E-01  0.7999E+01
  -0.955  0.5032E-01  0.7999E+01
  -0.950  0.4204E-01  0.7999E+01
  -0.945  0.3474E-01  0.7999E+01
  -0.940  0.2840E-01  0.7999E+01
  -0.935  0.2297E-01  0.8000E+01
  -0.930  0.1838E-01  0.8000E+01
  -0.925  0.1455E-01  0.8000E+01
  -0.920  0.1139E-01  0.8000E+01
  -0.915  0.8821E-02  0.8000E+01
  -0.910  0.6759E-02  0.8000E+01
  -0.905  0.5124E-02  0.8000E+01
  -0.900  0.3842E-02  0.8000E+01
  -0.895  0.2850E-02  0.8000E+01
  -0.890  0.2092E-02  0.8000E+01
  -0.885  0.1518E-02  0.8000E+01
  -0.880  0.1090E-02  0.8000E+01
  -0.875  0.7747E-03  0.8000E+01
  -0.870  0.5444E-03  0.8000E+01
  -0.865  0.3785E-03  0.8000E+01
  -0.860  0.2603E-03  0.8000E+01
  -0.855  0.1771E-03  0.8000E+01
  -0.850  0.1192E-03  0.8000E+01
  -0.845  0.7938E-04  0.8000E+01
  -0.840  0.5229E-04  0.8000E+01
  -0.835  0.3407E-04  0.8000E+01
  -0.830  0.2196E-04  0.8000E+01
  -0.825  0.1400E-04  0.8000E+01
  -0.820  0.8835E-05  0.8000E+01
  -0.815  0.5513E-05  0.8000E+01
  -0.810  0.3404E-05  0.8000E+01
  -0.805  0.2079E-05  0.8000E+01
  -0.800  0.1256E-05  0.8000E+01
  -0.795  0.7505E-06  0.8000E+01
  -0.790  0.4437E-06  0.8000E+01
  -0.785  0.2595E-06  0.8000E+01
  -0.780  0.1502E-06  0.8000E+01
  -0.775  0.8595E-07  0.8000E+01
  -0.770  0.4867E-07  0.8000E+01
  -0.765  0.2726E-07  0.8000E+01
  -0.760  0.1511E-07  0.8000E+01
  -0.755  0.8280E-08  0.8000E+01
  -0.750  0.4490E-08  0.8000E+01
  -0.745  0.2409E-08  0.8000E+01
  -0.740  0.1278E-08  0.8000E+01
  -0.735  0.6711E-09  0.8000E+01
  -0.730  0.3485E-09  0.8000E+01
  -0.725  0.1791E-09  0.8000E+01
  -0.720  0.9100E-10  0.8000E+01
  -0.715  0.4575E-10  0.8000E+01
  -0.710  0.2276E-10  0.8000E+01
  -0.705  0.1120E-10  0.8000E+01
  -0.700  0.5450E-11  0.8000E+01
  -0.695  0.2624E-11  0.8000E+01
  -0.690  0.1250E-11  0.8000E+01
  -0.685  0.5890E-12  0.8000E+01
  -0.680  0.2746E-12  0.8000E+01
  -0.675  0.1266E-12  0.8000E+01
  -0.670  0.5776E-13  0.8000E+01
  -0.665  0.2607E-13  0.8000E+01
  -0.660  0.1164E-13  0.8000E+01
  -0.655  0.5140E-14  0.8000E+01
  -0.650  0.2245E-14  0.8000E+01
  -0.645  0.9705E-15  0.8000E+01
  -0.640  0.4149E-15  0.8000E+01
  -0.635  0.1755E-15  0.8000E+01
  -0.630  0.7343E-16  0.8000E+01
  -0.625  0.3040E-16  0.8000E+01
  -0.620  0.1245E-16  0.8000E+01
  -0.615  0.5042E-17  0.8000E+01
  -0.610  0.2020E-17  0.8000E+01
  -0.605  0.8009E-18  0.8000E+01
  -0.600  0.3141E-18  0.8000E+01
  -0.595  0.1218E-18  0.8000E+01
  -0.590  0.4676E-19  0.8000E+01
  -0.585  0.1775E-19  0.8000E+01
  -0.580  0.6667E-20  0.8000E+01
  -0.575  0.2477E-20  0.8000E+01
  -0.570  0.9104E-21  0.8000E+01
  -0.565  0.3310E-21  0.8000E+01
  -0.560  0.1192E-21  0.8000E+01
  -0.555  0.4267E-22  0.8000E+01
  -0.550  0.1582E-22  0.8000E+01
  -0.545  0.7854E-23  0.8000E+01
  -0.540  0.9484E-23  0.8000E+01
  -0.535  0.2262E-22  0.8000E+01
  -0.530  0.6249E-22  0.8000E+01
  -0.525  0.1744E-21  0.8000E+01
  -0.520  0.4828E-21  0.8000E+01
  -0.515  0.1323E-20  0.8000E+01
  -0.510  0.3584E-20  0.8000E+01
  -0.505  0.9608E-20  0.8000E+01
  -0.500  0.2548E-19  0.8000E+01
  -0.495  0.6684E-19  0.8000E+01
  -0.490  0.1735E-18  0.8000E+01
  -0.485  0.4454E-18  0.8000E+01
  -0.480  0.1131E-17  0.8000E+01
  -0.475  0.2842E-17  0.8000E+01
  -0.470  0.7064E-17  0.8000E+01
  -0.465  0.1737E-16  0.8000E+01
  -0.460  0.4225E-16  0.8000E+01
  -0.455  0.1017E-15  0.8000E+01
  -0.450  0.2420E-15  0.8000E+01
  -0.445  0.5698E-15  0.8000E+01
  -0.440  0.1327E-14  0.8000E+01
  -0.435  0.3059E-14  0.8000E+01
  -0.430  0.6974E-14  0.8000E+01
  -0.425  0.1573E-13  0.8000E+01
  -0.420  0.3509E-13  0.8000E+01
  -0.415  0.7744E-13  0.8000E+01
  -0.410  0.1691E-12  0.8000E+01
  -0.405  0.3652E-12  0.8000E+01
  -0.400  0.7802E-12  0.8000E+01
  -0.395  0.1649E-11  0.8000E+01
  -0.390  0.3448E-11  0.8000E+01
  -0.385  0.7132E-11  0.8000E+01
  -0.380  0.1459E-10  0.8000E+01
  -0.375  0.2954E-10  0.8000E+01
  -0.370  0.5916E-10  0.8000E+01
  -0.365  0.1172E-09  0.8000E+01
  -0.360  0.2297E-09  0.8000E+01
  -0.355  0.4452E-09  0.8000E+01
  -0.350  0.8539E-09  0.8000E+01
  -0.345  0.1620E-08  0.8000E+01
  -0.340  0.3040E-08  0.8000E+01
  -0.335  0.5645E-08  0.8000E+01
  -0.330  0.1037E-07  0.8000E+01
  -0.325  0.1884E-07  0.8000E+01
  -0.320  0.3386E-07  0.8000E+01
  -0.315  0.6020E-07  0.8000E+01
  -0.310  0.1059E-06  0.8000E+01
  -0.305  0.1843E-06  0.8000E+01
  -0.300  0.3172E-06  0.8000E+01
  -0.295  0.5402E-06  0.8000E+01
  -0.290  0.9100E-06  0.8000E+01
  -0.285  0.1517E-05  0.8000E+01
  -0.280  0.2500E-05  0.8000E+01
  -0.275  0.4077E-05  0.8000E+01
  -0.270  0.6578E-05  0.8000E+01
  -0.265  0.1050E-04  0.8000E+01
  -0.260  0.1658E-04  0.8000E+01
  -0.255  0.2589E-04  0.8000E+01
  -0.250  0.4000E-04  0.8000E+01
  -0.245  0.6115E-04  0.8000E+01
  -0.240  0.9246E-04  0.8000E+01
  -0.235  0.1383E-03  0.8000E+01
  -0.230  0.2047E-03  0.8000E+01
  -0.225  0.2996E-03  0.8000E+01
  -0.220  0.4339E-03  0.8000E+01
  -0.215  0.6215E-03  0.8000E+01
  -0.210  0.8808E-03  0.8000E+01
  -0.205  0.1235E-02  0.8000E+01
  -0.200  0.1713E-02  0.8000E+01
  -0.195  0.2350E-02  0.8000E+01
  -0.190  0.3189E-02  0.8000E+01
  -0.185  0.4282E-02  0.8000E+01
  -0.180  0.5688E-02  0.8000E+01
  -0.175  0.7474E-02  0.8000E+01
  -0.170  0.9715E-02  0.8000E+01
  -0.165  0.1249E-01  0.8000E+01
  -0.160  0.1589E-01  0.8000E+01
  -0.155  0.2000E-01  0.8000E+01
  -0.150  0.2490E-01  0.8001E+01
  -0.145  0.3067E-01  0.8001E+01
  -0.140  0.3737E-01  0.8001E+01
  -0.135  0.4505E-01  0.8001E+01
  -0.130  0.5373E-01  0.8001E+01
  -0.125  0.6340E-01  0.8002E+01
  -0.120  0.7401E-01  0.8002E+01
  -0.115  0.8549E-01  0.8003E+01
  -0.110  0.9770E-01  0.8003E+01
  -0.105  0.1105E+00  0.8004E+01
  -0.100  0.1236E+00  0.8004E+01
  -0.095  0.1369E+00  0.8005E+01
  -0.090  0.1501E+00  0.8006E+01
  -0.085  0.1628E+00  0.8006E+01
  -0.080  0.1749E+00  0.8007E+01
  -0.075  0.1861E+00  0.8008E+01
  -0.070  0.1961E+00  0.8009E+01
  -0.065  0.2047E+00  0.8010E+01
  -0.060  0.2118E+00  0.8011E+01
  -0.055  0.2174E+00  0.8012E+01
  -0.050  0.2213E+00  0.8013E+01
  -0.045  0.2238E+00  0.8015E+01
  -0.040  0.2249E+00  0.8016E+01
  -0.035  0.2248E+00  0.8017E+01
  -0.030  0.2238E+00  0.8018E+01
  -0.025  0.2222E+00  0.8019E+01
  -0.020  0.2201E+00  0.8020E+01
  -0.015  0.2180E+00  0.8021E+01
  -0.010  0.2161E+00  0.8022E+01
  -0.005  0.2147E+00  0.8023E+01
   0.000  0.2138E+00  0.8024E+01
   0.005  0.2136E+00  0.8026E+01
   0.010  0.2141E+00  0.8027E+01
   0.015  0.2152E+00  0.8028E+01
   0.020  0.2169E+00  0.8029E+01
   0.025  0.2189E+00  0.8030E+01
   0.030  0.2210E+00  0.8031E+01
   0.035  0.2229E+00  0.8032E+01
   0.040  0.2244E+00  0.8033E+01
   0.045  0.2250E+00  0.8034E+01
   0.050  0.2246E+00  0.8035E+01
   0.055  0.2229E+00  0.8037E+01
   0.060  0.2198E+00  0.8038E+01
   0.065  0.2152E+00  0.8039E+01
   0.070  0.2090E+00  0.8040E+01
   0.075  0.2012E+00  0.8041E+01
   0.080  0.1920E+00  0.8042E+01
   0.085  0.1815E+00  0.8043E+01
   0.090  0.1699E+00  0.8044E+01
   0.095  0.1576E+00  0.8044E+01
   0.100  0.1447E+00  0.8045E+01
   0.105  0.1316E+00  0.8046E+01
   0.110  0.1185E+00  0.8046E+01
   0.115  0.1058E+00  0.8047E+01
   0.120  0.9360E-01  0.8047E+01
   0.125  0.8224E-01  0.8048E+01
   0.130  0.7189E-01  0.8048E+01
   0.135  0.6274E-01  0.8048E+01
   0.140  0.5493E-01  0.8049E+01
   0.145  0.4863E-01  0.8049E+01
   0.150  0.4397E-01  0.8049E+01
   0.155  0.4109E-01  0.8049E+01
   0.160  0.4015E-01  0.8050E+01
   0.165  0.4132E-01  0.8050E+01
   0.170  0.4479E-01  0.8050E+01
   0.175  0.5079E-01  0.8050E+01
   0.180  0.5957E-01  0.8050E+01
   0.185  0.7138E-01  0.8051E+01
   0.190  0.8653E-01  0.8051E+01
   0.195  0.1053E+00  0.8052E+01
   0.200  0.1279E+00  0.8052E+01
   0.205  0.1546E+00  0.8053E+01
   0.210  0.1857E+00  0.8054E+01
   0.215  0.2210E+00  0.8055E+01
   0.220  0.2607E+00  0.8057E+01
   0.225  0.3046E+00  0.8058E+01
   0.230  0.3523E+00  0.8060E+01
   0.235  0.4035E+00  0.8062E+01
   0.240  0.4574E+00  0.8064E+01
   0.245  0.5134E+00  0.8067E+01
   0.250  0.5703E+00  0.8070E+01
   0.255  0.6273E+00  0.8073E+01
   0.260  0.6831E+00  0.8076E+01
   0.265  0.7365E+00  0.8080E+01
   0.270  0.7863E+00  0.8084E+01
   0.275  0.8315E+00  0.8088E+01
   0.280  0.8708E+00  0.8092E+01
   0.285  0.9035E+00  0.8097E+01
   0.290  0.9289E+00  0.8101E+01
   0.295  0.9464E+00  0.8106E+01
   0.300  0.9560E+00  0.8111E+01
   0.305  0.9576E+00  0.8116E+01
   0.310  0.9516E+00  0.8120E+01
   0.315  0.9386E+00  0.8125E+01
   0.320  0.9194E+00  0.8130E+01
   0.325  0.8950E+00  0.8134E+01
   0.330  0.8666E+00  0.8139E+01
   0.335  0.8354E+00  0.8143E+01
   0.340  0.8028E+00  0.8147E+01
   0.345  0.7701E+00  0.8151E+01
   0.350  0.7385E+00  0.8154E+01
   0.355  0.7093E+00  0.8158E+01
   0.360  0.6835E+00  0.8161E+01
   0.365  0.6620E+00  0.8165E+01
   0.370  0.6456E+00  0.8168E+01
   0.375  0.6348E+00  0.8171E+01
   0.380  0.6300E+00  0.8174E+01
   0.385  0.6312E+00  0.8177E+01
   0.390  0.6385E+00  0.8180E+01
   0.395  0.6515E+00  0.8184E+01
   0.400  0.6699E+00  0.8187E+01
   0.405  0.6931E+00  0.8191E+01
   0.410  0.7202E+00  0.8194E+01
   0.415  0.7505E+00  0.8198E+01
   0.420  0.7830E+00  0.8202E+01
   0.425  0.8167E+00  0.8206E+01
   0.430  0.8505E+00  0.8210E+01
   0.435  0.8834E+00  0.8215E+01
   0.440  0.9143E+00  0.8219E+01
   0.445  0.9424E+00  0.8224E+01
   0.450  0.9667E+00  0.8229E+01
   0.455  0.9865E+00  0.8234E+01
   0.460  0.1001E+01  0.8239E+01
   0.465  0.1010E+01  0.8244E+01
   0.470  0.1014E+01  0.8249E+01
   0.475  0.1011E+01  0.8254E+01
   0.480  0.1003E+01  0.8259E+01
   0.485  0.9896E+00  0.8264E+01
   0.490  0.9714E+00  0.8269E+01
   0.495  0.9490E+00  0.8273E+01
   0.500  0.9234E+00  0.8278E+01
   0.505  0.8954E+00  0.8282E+01
   0.510  0.8659E+00  0.8287E+01
   0.515  0.8359E+00  0.8291E+01
   0.520  0.8062E+00  0.8295E+01
   0.525  0.7777E+00  0.8299E+01
   0.530  0.7511E+00  0.8303E+01
   0.535  0.7269E+00  0.8306E+01
   0.540  0.7057E+00  0.8310E+01
   0.545  0.6877E+00  0.8313E+01
   0.550  0.6730E+00  0.8317E+01
   0.555  0.6618E+00  0.8320E+01
   0.560  0.6540E+00  0.8323E+01
   0.565  0.6496E+00  0.8326E+01
   0.570  0.6484E+00  0.8330E+01
   0.575  0.6502E+00  0.8333E+01
   0.580  0.6551E+00  0.8336E+01
   0.585  0.6629E+00  0.8340E+01
   0.590  0.6735E+00  0.8343E+01
   0.595  0.6869E+00  0.8346E+01
   0.600  0.7031E+00  0.8350E+01
   0.605  0.7221E+00  0.8353E+01
   0.610  0.7438E+00  0.8357E+01
   0.615  0.7681E+00  0.8361E+01
   0.620  0.7948E+00  0.8365E+01
   0.625  0.8235E+00  0.8369E+01
   0.630  0.8539E+00  0.8373E+01
   0.635  0.8853E+00  0.8378E+01
   0.640  0.9170E+00  0.8382E+01
   0.645  0.9483E+00  0.8387E+01
   0.650  0.9783E+00  0.8392E+01
   0.655  0.1006E+01  0.8397E+01
   0.660  0.1031E+01  0.8402E+01
   0.665  0.1051E+01  0.8407E+01
   0.670  0.1067E+01  0.8413E+01
   0.675  0.1077E+01  0.8418E+01
   0.680  0.1081E+01  0.8424E+01
   0.685  0.1079E+01  0.8429E+01
   0.690  0.1070E+01  0.8434E+01
   0.695  0.1055E+01  0.8440E+01
   0.700  0.1034E+01  0.8445E+01
   0.705  0.1006E+01  0.8450E+01
   0.710  0.9733E+00  0.8455E+01
   0.715  0.9357E+00  0.8459E+01
   0.720  0.8941E+00  0.8464E+01
   0.725  0.8492E+00  0.8468E+01
   0.730  0.8019E+00  0.8472E+01
   0.735  0.7530E+00  0.8476E+01
   0.740  0.7032E+00  0.8479E+01
   0.745  0.6533E+00  0.8483E+01
   0.750  0.6039E+00  0.8486E+01
   0.755  0.5557E+00  0.8488E+01
   0.760  0.5093E+00  0.8491E+01
   0.765  0.4652E+00  0.8493E+01
   0.770  0.4239E+00  0.8495E+01
   0.775  0.3858E+00  0.8497E+01
   0.780  0.3513E+00  0.8499E+01
   0.785  0.3208E+00  0.8501E+01
   0.790  0.2946E+00  0.8502E+01
   0.795  0.2730E+00  0.8504E+01
   0.800  0.2563E+00  0.8505E+01
   0.805  0.2448E+00  0.8506E+01
   0.810  0.2385E+00  0.8507E+01
   0.815  0.2376E+00  0.8508E+01
   0.820  0.2422E+00  0.8510E+01
   0.825  0.2522E+00  0.8511E+01
   0.830  0.2676E+00  0.8512E+01
   0.835  0.2881E+00  0.8514E+01
   0.840  0.3134E+00  0.8515E+01
   0.845  0.3430E+00  0.8517E+01
   0.850  0.3764E+00  0.8519E+01
   0.855  0.4129E+00  0.8521E+01
   0.860  0.4518E+00  0.8523E+01
   0.865  0.4920E+00  0.8526E+01
   0.870  0.5328E+00  0.8528E+01
   0.875  0.5730E+00  0.8531E+01
   0.880  0.6117E+00  0.8534E+01
   0.885  0.6478E+00  0.8537E+01
   0.890  0.6804E+00  0.8541E+01
   0.895  0.7085E+00  0.8544E+01
   0.900  0.7314E+00  0.8548E+01
   0.905  0.7484E+00  0.8552E+01
   0.910  0.7590E+00  0.8556E+01
   0.915  0.7628E+00  0.8559E+01
   0.920  0.7598E+00  0.8563E+01
   0.925  0.7499E+00  0.8567E+01
   0.930  0.7335E+00  0.8571E+01
   0.935  0.7110E+00  0.8574E+01
   0.940  0.6829E+00  0.8578E+01
   0.945  0.6499E+00  0.8581E+01
   0.950  0.6130E+00  0.8584E+01
   0.955  0.5729E+00  0.8587E+01
   0.960  0.5307E+00  0.8589E+01
   0.965  0.4872E+00  0.8592E+01
   0.970  0.4434E+00  0.8594E+01
   0.975  0.4003E+00  0.8596E+01
   0.980  0.3585E+00  0.8598E+01
   0.985  0.3189E+00  0.8599E+01
   0.990  0.2821E+00  0.8601E+01
   0.995  0.2486E+00  0.8602E+01
   1.000  0.2188E+00  0.8603E+01
   1.005  0.1930E+00  0.8604E+01
   1.010  0.1716E+00  0.8605E+01
   1.015  0.1546E+00  0.8606E+01
   1.020  0.1422E+00  0.8607E+01
   1.025  0.1343E+00  0.8607E+01
   1.030  0.1308E+00  0.8608E+01
   1.035  0.1317E+00  0.8608E+01
   1.040  0.1368E+00  0.8609E+01
   1.045  0.1458E+00  0.8610E+01
   1.050  0.1584E+00  0.8611E+01
   1.055  0.1742E+00  0.8612E+01
   1.060  0.1929E+00  0.8613E+01
   1.065  0.2140E+00  0.8614E+01
   1.070  0.2369E+00  0.8615E+01
   1.075  0.2610E+00  0.8616E+01
   1.080  0.2857E+00  0.8618E+01
   1.085  0.3103E+00  0.8619E+01
   1.090  0.3343E+00  0.8621E+01
   1.095  0.3570E+00  0.8623E+01
   1.100  0.3778E+00  0.8624E+01
   1.105  0.3963E+00  0.8626E+01
   1.110  0.4121E+00  0.8628E+01
   1.115  0.4251E+00  0.8631E+01
   1.120  0.4351E+00  0.8633E+01
   1.125  0.4424E+00  0.8635E+01
   1.130  0.4472E+00  0.8637E+01
   1.135  0.4501E+00  0.8639E+01
   1.140  0.4516E+00  0.8642E+01
   1.145  0.4527E+00  0.8644E+01
   1.150  0.4541E+00  0.8646E+01
   1.155  0.4567E+00  0.8649E+01
   1.160  0.4617E+00  0.8651E+01
   1.165  0.4697E+00  0.8653E+01
   1.170  0.4816E+00  0.8656E+01
   1.175  0.4981E+00  0.8658E+01
   1.180  0.5195E+00  0.8661E+01
   1.185  0.5461E+00  0.8663E+01
   1.190  0.5778E+00  0.8666E+01
   1.195  0.6142E+00  0.8669E+01
   1.200  0.6547E+00  0.8673E+01
   1.205  0.6984E+00  0.8676E+01
   1.210  0.7442E+00  0.8680E+01
   1.215  0.7906E+00  0.8684E+01
   1.220  0.8363E+00  0.8688E+01
   1.225  0.8797E+00  0.8692E+01
   1.230  0.9192E+00  0.8697E+01
   1.235  0.9533E+00  0.8702E+01
   1.240  0.9808E+00  0.8707E+01
   1.245  0.1000E+01  0.8712E+01
   1.250  0.1011E+01  0.8717E+01
   1.255  0.1013E+01  0.8722E+01
   1.260  0.1004E+01  0.8727E+01
   1.265  0.9867E+00  0.8732E+01
   1.270  0.9597E+00  0.8737E+01
   1.275  0.9242E+00  0.8741E+01
   1.280  0.8811E+00  0.8746E+01
   1.285  0.8316E+00  0.8750E+01
   1.290  0.7769E+00  0.8754E+01
   1.295  0.7184E+00  0.8757E+01
   1.300  0.6576E+00  0.8760E+01
   1.305  0.5957E+00  0.8763E+01
   1.310  0.5342E+00  0.8766E+01
   1.315  0.4741E+00  0.8769E+01
   1.320  0.4164E+00  0.8771E+01
   1.325  0.3620E+00  0.8772E+01
   1.330  0.3115E+00  0.8774E+01
   1.335  0.2652E+00  0.8775E+01
   1.340  0.2235E+00  0.8776E+01
   1.345  0.1865E+00  0.8777E+01
   1.350  0.1540E+00  0.8778E+01
   1.355  0.1258E+00  0.8779E+01
   1.360  0.1018E+00  0.8779E+01
   1.365  0.8161E-01  0.8780E+01
   1.370  0.6483E-01  0.8780E+01
   1.375  0.5111E-01  0.8780E+01
   1.380  0.4009E-01  0.8780E+01
   1.385  0.3142E-01  0.8781E+01
   1.390  0.2479E-01  0.8781E+01
   1.395  0.1992E-01  0.8781E+01
   1.400  0.1661E-01  0.8781E+01
   1.405  0.1467E-01  0.8781E+01
   1.410  0.1400E-01  0.8781E+01
   1.415  0.1453E-01  0.8781E+01
   1.420  0.1623E-01  0.8781E+01
   1.425  0.1915E-01  0.8781E+01
   1.430  0.2334E-01  0.8781E+01
   1.435  0.2891E-01  0.8782E+01
   1.440  0.3599E-01  0.8782E+01
   1.445  0.4472E-01  0.8782E+01
   1.450  0.5526E-01  0.8782E+01
   1.455  0.6775E-01  0.8783E+01
   1.460  0.8233E-01  0.8783E+01
   1.465  0.9909E-01  0.8783E+01
   1.470  0.1181E+00  0.8784E+01
   1.475  0.1394E+00  0.8785E+01
   1.480  0.1629E+00  0.8786E+01
   1.485  0.1885E+00  0.8787E+01
   1.490  0.2160E+00  0.8788E+01
   1.495  0.2452E+00  0.8789E+01
   1.500  0.2757E+00  0.8790E+01
   1.505  0.3072E+00  0.8792E+01
   1.510  0.3392E+00  0.8793E+01
   1.515  0.3714E+00  0.8795E+01
   1.520  0.4031E+00  0.8797E+01
   1.525  0.4340E+00  0.8799E+01
   1.530  0.4636E+00  0.8802E+01
   1.535  0.4915E+00  0.8804E+01
   1.540  0.5173E+00  0.8807E+01
   1.545  0.5408E+00  0.8810E+01
   1.550  0.5617E+00  0.8812E+01
   1.555  0.5798E+00  0.8815E+01
   1.560  0.5950E+00  0.8818E+01
   1.565  0.6072E+00  0.8821E+01
   1.570  0.6164E+00  0.8824E+01
   1.575  0.6226E+00  0.8827E+01
   1.580  0.6257E+00  0.8831E+01
   1.585  0.6257E+00  0.8834E+01
   1.590  0.6227E+00  0.8837E+01
   1.595  0.6166E+00  0.8840E+01
   1.600  0.6075E+00  0.8843E+01
   1.605  0.5954E+00  0.8846E+01
   1.610  0.5804E+00  0.8849E+01
   1.615  0.5626E+00  0.8852E+01
   1.620  0.5422E+00  0.8854E+01
   1.625  0.5193E+00  0.8857E+01
   1.630  0.4943E+00  0.8859E+01
   1.635  0.4675E+00  0.8862E+01
   1.640  0.4393E+00  0.8864E+01
   1.645  0.4103E+00  0.8866E+01
   1.650  0.3811E+00  0.8868E+01
   1.655  0.3522E+00  0.8870E+01
   1.660  0.3241E+00  0.8871E+01
   1.665  0.2977E+00  0.8873E+01
   1.670  0.2733E+00  0.8874E+01
   1.675  0.2516E+00  0.8875E+01
   1.680  0.2331E+00  0.8877E+01
   1.685  0.2182E+00  0.8878E+01
   1.690  0.2072E+00  0.8879E+01
   1.695  0.2003E+00  0.8880E+01
   1.700  0.1977E+00  0.8881E+01
   1.705  0.1993E+00  0.8882E+01
   1.710  0.2051E+00  0.8883E+01
   1.715  0.2148E+00  0.8884E+01
   1.720  0.2280E+00  0.8885E+01
   1.725  0.2443E+00  0.8886E+01
   1.730  0.2631E+00  0.8887E+01
   1.735  0.2839E+00  0.8889E+01
   1.740  0.3059E+00  0.8890E+01
   1.745  0.3284E+00  0.8892E+01
   1.750  0.3508E+00  0.8894E+01
   1.755  0.3723E+00  0.8896E+01
   1.760  0.3923E+00  0.8898E+01
   1.765  0.4103E+00  0.8900E+01
   1.770  0.4257E+00  0.8902E+01
   1.775  0.4382E+00  0.8904E+01
   1.780  0.4477E+00  0.8906E+01
   1.785  0.4540E+00  0.8909E+01
   1.790  0.4572E+00  0.8911E+01
   1.795  0.4576E+00  0.8913E+01
   1.800  0.4555E+00  0.8915E+01
   1.805  0.4512E+00  0.8918E+01
   1.810  0.4453E+00  0.8920E+01
   1.815  0.4384E+00  0.8922E+01
   1.820  0.4310E+00  0.8924E+01
   1.825  0.4236E+00  0.8926E+01
   1.830  0.4168E+00  0.8928E+01
   1.835  0.4110E+00  0.8930E+01
   1.840  0.4067E+00  0.8932E+01
   1.845  0.4042E+00  0.8935E+01
   1.850  0.4037E+00  0.8937E+01
   1.855  0.4055E+00  0.8939E+01
   1.860  0.4097E+00  0.8941E+01
   1.865  0.4164E+00  0.8943E+01
   1.870  0.4256E+00  0.8945E+01
   1.875  0.4375E+00  0.8947E+01
   1.880  0.4519E+00  0.8949E+01
   1.885  0.4688E+00  0.8952E+01
   1.890  0.4883E+00  0.8954E+01
   1.895  0.5101E+00  0.8957E+01
   1.900  0.5343E+00  0.8959E+01
   1.905  0.5605E+00  0.8962E+01
   1.910  0.5888E+00  0.8965E+01
   1.915  0.6187E+00  0.8968E+01
   1.920  0.6500E+00  0.8971E+01
   1.925  0.6822E+00  0.8975E+01
   1.930  0.7150E+00  0.8978E+01
   1.935  0.7478E+00  0.8982E+01
   1.940  0.7801E+00  0.8986E+01
   1.945  0.8113E+00  0.8990E+01
   1.950  0.8407E+00  0.8994E+01
   1.955  0.8678E+00  0.8999E+01
   1.960  0.8920E+00  0.9003E+01
   1.965  0.9126E+00  0.9008E+01
   1.970  0.9293E+00  0.9012E+01
   1.975  0.9415E+00  0.9017E+01
   1.980  0.9490E+00  0.9022E+01
   1.985  0.9517E+00  0.9026E+01
   1.990  0.9494E+00  0.9031E+01
   1.995  0.9424E+00  0.9036E+01
   2.000  0.9308E+00  0.9041E+01
   2.005  0.9152E+00  0.9045E+01
   2.010  0.8960E+00  0.9050E+01
   2.015  0.8741E+00  0.9054E+01
   2.020  0.8502E+00  0.9058E+01
   2.025  0.8253E+00  0.9062E+01
   2.030  0.8002E+00  0.9066E+01
   2.035  0.7762E+00  0.9070E+01
   2.040  0.7540E+00  0.9074E+01
   2.045  0.7346E+00  0.9078E+01
   2.050  0.7189E+00  0.9081E+01
   2.055  0.7076E+00  0.9085E+01
   2.060  0.7012E+00  0.9088E+01
   2.065  0.6999E+00  0.9092E+01
   2.070  0.7040E+00  0.9095E+01
   2.075  0.7133E+00  0.9099E+01
   2.080  0.7276E+00  0.9103E+01
   2.085  0.7462E+00  0.9106E+01
   2.090  0.7684E+00  0.9110E+01
   2.095  0.7934E+00  0.9114E+01
   2.100  0.8201E+00  0.9118E+01
   2.105  0.8474E+00  0.9122E+01
   2.110  0.8742E+00  0.9127E+01
   2.115  0.8994E+00  0.9131E+01
   2.120  0.9219E+00  0.9136E+01
   2.125  0.9409E+00  0.9141E+01
   2.130  0.9555E+00  0.9145E+01
   2.135  0.9651E+00  0.9150E+01
   2.140  0.9695E+00  0.9155E+01
   2.145  0.9684E+00  0.9160E+01
   2.150  0.9621E+00  0.9165E+01
   2.155  0.9509E+00  0.9169E+01
   2.160  0.9355E+00  0.9174E+01
   2.165  0.9165E+00  0.9179E+01
   2.170  0.8951E+00  0.9183E+01
   2.175  0.8723E+00  0.9188E+01
   2.180  0.8492E+00  0.9192E+01
   2.185  0.8271E+00  0.9196E+01
   2.190  0.8071E+00  0.9200E+01
   2.195  0.7903E+00  0.9204E+01
   2.200  0.7775E+00  0.9208E+01
   2.205  0.7694E+00  0.9212E+01
   2.210  0.7667E+00  0.9216E+01
   2.215  0.7693E+00  0.9219E+01
   2.220  0.7775E+00  0.9223E+01
   2.225  0.7907E+00  0.9227E+01
   2.230  0.8084E+00  0.9231E+01
   2.235  0.8300E+00  0.9235E+01
   2.240  0.8543E+00  0.9240E+01
   2.245  0.8802E+00  0.9244E+01
   2.250  0.9066E+00  0.9249E+01
   2.255  0.9323E+00  0.9253E+01
   2.260  0.9560E+00  0.9258E+01
   2.265  0.9768E+00  0.9263E+01
   2.270  0.9937E+00  0.9268E+01
   2.275  0.1006E+01  0.9273E+01
   2.280  0.1013E+01  0.9278E+01
   2.285  0.1016E+01  0.9283E+01
   2.290  0.1013E+01  0.9288E+01
   2.295  0.1005E+01  0.9293E+01
   2.300  0.9941E+00  0.9298E+01
   2.305  0.9799E+00  0.9303E+01
   2.310  0.9638E+00  0.9308E+01
   2.315  0.9472E+00  0.9313E+01
   2.320  0.9312E+00  0.9317E+01
   2.325  0.9172E+00  0.9322E+01
   2.330  0.9065E+00  0.9326E+01
   2.335  0.9000E+00  0.9331E+01
   2.340  0.8987E+00  0.9335E+01
   2.345  0.9032E+00  0.9340E+01
   2.350  0.9138E+00  0.9344E+01
   2.355  0.9305E+00  0.9349E+01
   2.360  0.9532E+00  0.9354E+01
   2.365  0.9812E+00  0.9359E+01
   2.370  0.1014E+01  0.9364E+01
   2.375  0.1050E+01  0.9369E+01
   2.380  0.1089E+01  0.9375E+01
   2.385  0.1128E+01  0.9380E+01
   2.390  0.1168E+01  0.9386E+01
   2.395  0.1207E+01  0.9392E+01
   2.400  0.1243E+01  0.9398E+01
   2.405  0.1277E+01  0.9405E+01
   2.410  0.1306E+01  0.9411E+01
   2.415  0.1332E+01  0.9418E+01
   2.420  0.1353E+01  0.9425E+01
   2.425  0.1369E+01  0.9431E+01
   2.430  0.1381E+01  0.9438E+01
   2.435  0.1389E+01  0.9445E+01
   2.440  0.1393E+01  0.9452E+01
   2.445  0.1393E+01  0.9459E+01
   2.450  0.1391E+01  0.9466E+01
   2.455  0.1386E+01  0.9473E+01
   2.460  0.1379E+01  0.9480E+01
   2.465  0.1370E+01  0.9487E+01
   2.470  0.1360E+01  0.9494E+01
   2.475  0.1349E+01  0.9500E+01
   2.480  0.1336E+01  0.9507E+01
   2.485  0.1322E+01  0.9514E+01
   2.490  0.1307E+01  0.9520E+01
   2.495  0.1291E+01  0.9527E+01
   2.500  0.1274E+01  0.9533E+01
   2.505  0.1257E+01  0.9539E+01
   2.510  0.1239E+01  0.9546E+01
   2.515  0.1222E+01  0.9552E+01
   2.520  0.1204E+01  0.9558E+01
   2.525  0.1188E+01  0.9564E+01
   2.530  0.1173E+01  0.9569E+01
   2.535  0.1160E+01  0.9575E+01
   2.540  0.1149E+01  0.9581E+01
   2.545  0.1140E+01  0.9587E+01
   2.550  0.1136E+01  0.9592E+01
   2.555  0.1134E+01  0.9598E+01
   2.560  0.1136E+01  0.9604E+01
   2.565  0.1143E+01  0.9609E+01
   2.570  0.1153E+01  0.9615E+01
   2.575  0.1167E+01  0.9621E+01
   2.580  0.1184E+01  0.9627E+01
   2.585  0.1204E+01  0.9633E+01
   2.590  0.1227E+01  0.9639E+01
   2.595  0.1251E+01  0.9645E+01
   2.600  0.1277E+01  0.9652E+01
   2.605  0.1303E+01  0.9658E+01
   2.610  0.1328E+01  0.9665E+01
   2.615  0.1353E+01  0.9672E+01
   2.620  0.1376E+01  0.9679E+01
   2.625  0.1397E+01  0.9686E+01
   2.630  0.1414E+01  0.9693E+01
   2.635  0.1429E+01  0.9700E+01
   2.640  0.1441E+01  0.9707E+01
   2.645  0.1449E+01  0.9714E+01
   2.650  0.1454E+01  0.9721E+01
   2.655  0.1457E+01  0.9729E+01
   2.660  0.1457E+01  0.9736E+01
   2.665  0.1455E+01  0.9743E+01
   2.670  0.1452E+01  0.9751E+01
   2.675  0.1448E+01  0.9758E+01
   2.680  0.1445E+01  0.9765E+01
   2.685  0.1441E+01  0.9772E+01
   2.690  0.1439E+01  0.9779E+01
   2.695  0.1438E+01  0.9787E+01
   2.700  0.1439E+01  0.9794E+01
   2.705  0.1443E+01  0.9801E+01
   2.710  0.1448E+01  0.9808E+01
   2.715  0.1456E+01  0.9816E+01
   2.720  0.1467E+01  0.9823E+01
   2.725  0.1481E+01  0.9830E+01
   2.730  0.1497E+01  0.9838E+01
   2.735  0.1516E+01  0.9845E+01
   2.740  0.1537E+01  0.9853E+01
   2.745  0.1561E+01  0.9861E+01
   2.750  0.1586E+01  0.9869E+01
   2.755  0.1613E+01  0.9877E+01
   2.760  0.1641E+01  0.9885E+01
   2.765  0.1670E+01  0.9893E+01
   2.770  0.1699E+01  0.9902E+01
   2.775  0.1727E+01  0.9911E+01
   2.780  0.1753E+01  0.9919E+01
   2.785  0.1778E+01  0.9928E+01
   2.790  0.1800E+01  0.9937E+01
   2.795  0.1818E+01  0.9946E+01
   2.800  0.1832E+01  0.9955E+01
   2.805  0.1842E+01  0.9965E+01
   2.810  0.1847E+01  0.9974E+01
   2.815  0.1846E+01  0.9983E+01
   2.820  0.1839E+01  0.9992E+01
   2.825  0.1826E+01  0.1000E+02
   2.830  0.1808E+01  0.1001E+02
   2.835  0.1783E+01  0.1002E+02
   2.840  0.1754E+01  0.1003E+02
   2.845  0.1719E+01  0.1004E+02
   2.850  0.1680E+01  0.1005E+02
   2.855  0.1637E+01  0.1005E+02
   2.860  0.1592E+01  0.1006E+02
   2.865  0.1544E+01  0.1007E+02
   2.870  0.1495E+01  0.1008E+02
   2.875  0.1446E+01  0.1008E+02
   2.880  0.1398E+01  0.1009E+02
   2.885  0.1352E+01  0.1010E+02
   2.890  0.1309E+01  0.1010E+02
   2.895  0.1268E+01  0.1011E+02
   2.900  0.1232E+01  0.1012E+02
   2.905  0.1200E+01  0.1012E+02
   2.910  0.1172E+01  0.1013E+02
   2.915  0.1149E+01  0.1013E+02
   2.920  0.1130E+01  0.1014E+02
   2.925  0.1114E+01  0.1015E+02
   2.930  0.1100E+01  0.1015E+02
   2.935  0.1089E+01  0.1016E+02
   2.940  0.1079E+01  0.1016E+02
   2.945  0.1069E+01  0.1017E+02
   2.950  0.1059E+01  0.1017E+02
   2.955  0.1047E+01  0.1018E+02
   2.960  0.1034E+01  0.1018E+02
   2.965  0.1019E+01  0.1019E+02
   2.970  0.1002E+01  0.1019E+02
   2.975  0.9834E+00  0.1020E+02
   2.980  0.9640E+00  0.1020E+02
   2.985  0.9444E+00  0.1021E+02
   2.990  0.9255E+00  0.1021E+02
   2.995  0.9083E+00  0.1022E+02
   3.000  0.8940E+00  0.1022E+02
   3.005  0.8836E+00  0.1023E+02
   3.010  0.8781E+00  0.1023E+02
   3.015  0.8783E+00  0.1023E+02
   3.020  0.8848E+00  0.1024E+02
   3.025  0.8978E+00  0.1024E+02
   3.030  0.9173E+00  0.1025E+02
   3.035  0.9430E+00  0.1025E+02
   3.040  0.9742E+00  0.1026E+02
   3.045  0.1010E+01  0.1026E+02
   3.050  0.1050E+01  0.1027E+02
   3.055  0.1091E+01  0.1027E+02
   3.060  0.1134E+01  0.1028E+02
   3.065  0.1176E+01  0.1028E+02
   3.070  0.1216E+01  0.1029E+02
   3.075  0.1252E+01  0.1030E+02
   3.080  0.1284E+01  0.1030E+02
   3.085  0.1310E+01  0.1031E+02
   3.090  0.1329E+01  0.1032E+02
   3.095  0.1341E+01  0.1032E+02
   3.100  0.1346E+01  0.1033E+02
   3.105  0.1343E+01  0.1034E+02
   3.110  0.1332E+01  0.1034E+02
   3.115  0.1315E+01  0.1035E+02
   3.120  0.1292E+01  0.1036E+02
   3.125  0.1263E+01  0.1036E+02
   3.130  0.1229E+01  0.1037E+02
   3.135  0.1193E+01  0.1037E+02
   3.140  0.1154E+01  0.1038E+02
   3.145  0.1115E+01  0.1039E+02
   3.150  0.1076E+01  0.1039E+02
   3.155  0.1039E+01  0.1040E+02
   3.160  0.1006E+01  0.1040E+02
   3.165  0.9766E+00  0.1041E+02
   3.170  0.9531E+00  0.1041E+02
   3.175  0.9362E+00  0.1042E+02
   3.180  0.9268E+00  0.1042E+02
   3.185  0.9256E+00  0.1043E+02
   3.190  0.9332E+00  0.1043E+02
   3.195  0.9498E+00  0.1043E+02
   3.200  0.9755E+00  0.1044E+02
   3.205  0.1010E+01  0.1044E+02
   3.210  0.1054E+01  0.1045E+02
   3.215  0.1105E+01  0.1046E+02
   3.220  0.1163E+01  0.1046E+02
   3.225  0.1227E+01  0.1047E+02
   3.230  0.1295E+01  0.1047E+02
   3.235  0.1366E+01  0.1048E+02
   3.240  0.1439E+01  0.1049E+02
   3.245  0.1511E+01  0.1050E+02
   3.250  0.1580E+01  0.1050E+02
   3.255  0.1645E+01  0.1051E+02
   3.260  0.1704E+01  0.1052E+02
   3.265  0.1756E+01  0.1053E+02
   3.270  0.1800E+01  0.1054E+02
   3.275  0.1835E+01  0.1055E+02
   3.280  0.1859E+01  0.1056E+02
   3.285  0.1874E+01  0.1057E+02
   3.290  0.1879E+01  0.1058E+02
   3.295  0.1875E+01  0.1058E+02
   3.300  0.1864E+01  0.1059E+02
   3.305  0.1845E+01  0.1060E+02
   3.310  0.1821E+01  0.1061E+02
   3.315  0.1793E+01  0.1062E+02
   3.320  0.1763E+01  0.1063E+02
   3.325  0.1732E+01  0.1064E+02
   3.330  0.1701E+01  0.1065E+02
   3.335  0.1671E+01  0.1066E+02
   3.340  0.1644E+01  0.1066E+02
   3.345  0.1620E+01  0.1067E+02
   3.350  0.1599E+01  0.1068E+02
   3.355  0.1581E+01  0.1069E+02
   3.360  0.1566E+01  0.1070E+02
   3.365  0.1555E+01  0.1070E+02
   3.370  0.1545E+01  0.1071E+02
   3.375  0.1537E+01  0.1072E+02
   3.380  0.1532E+01  0.1073E+02
   3.385  0.1527E+01  0.1073E+02
   3.390  0.1524E+01  0.1074E+02
   3.395  0.1522E+01  0.1075E+02
   3.400  0.1522E+01  0.1076E+02
   3.405  0.1523E+01  0.1076E+02
   3.410  0.1527E+01  0.1077E+02
   3.415  0.1533E+01  0.1078E+02
   3.420  0.1542E+01  0.1079E+02
   3.425  0.1555E+01  0.1080E+02
   3.430  0.1572E+01  0.1080E+02
   3.435  0.1593E+01  0.1081E+02
   3.440  0.1618E+01  0.1082E+02
   3.445  0.1646E+01  0.1083E+02
   3.450  0.1677E+01  0.1084E+02
   3.455  0.1710E+01  0.1084E+02
   3.460  0.1744E+01  0.1085E+02
   3.465  0.1779E+01  0.1086E+02
   3.470  0.1813E+01  0.1087E+02
   3.475  0.1845E+01  0.1088E+02
   3.480  0.1875E+01  0.1089E+02
   3.485  0.1901E+01  0.1090E+02
   3.490  0.1923E+01  0.1091E+02
   3.495  0.1941E+01  0.1092E+02
   3.500  0.1954E+01  0.1093E+02
   3.505  0.1963E+01  0.1094E+02
   3.510  0.1969E+01  0.1095E+02
   3.515  0.1972E+01  0.1096E+02
   3.520  0.1972E+01  0.1097E+02
   3.525  0.1972E+01  0.1098E+02
   3.530  0.1972E+01  0.1099E+02
   3.535  0.1972E+01  0.1100E+02
   3.540  0.1975E+01  0.1101E+02
   3.545  0.1980E+01  0.1102E+02
   3.550  0.1989E+01  0.1103E+02
   3.555  0.2001E+01  0.1104E+02
   3.560  0.2018E+01  0.1105E+02
   3.565  0.2038E+01  0.1106E+02
   3.570  0.2063E+01  0.1107E+02
   3.575  0.2090E+01  0.1108E+02
   3.580  0.2120E+01  0.1109E+02
   3.585  0.2152E+01  0.1110E+02
   3.590  0.2184E+01  0.1111E+02
   3.595  0.2215E+01  0.1112E+02
   3.600  0.2243E+01  0.1113E+02
   3.605  0.2268E+01  0.1114E+02
   3.610  0.2288E+01  0.1116E+02
   3.615  0.2302E+01  0.1117E+02
   3.620  0.2307E+01  0.1118E+02
   3.625  0.2304E+01  0.1119E+02
   3.630  0.2291E+01  0.1120E+02
   3.635  0.2267E+01  0.1121E+02
   3.640  0.2233E+01  0.1122E+02
   3.645  0.2188E+01  0.1123E+02
   3.650  0.2132E+01  0.1125E+02
   3.655  0.2068E+01  0.1126E+02
   3.660  0.1994E+01  0.1127E+02
   3.665  0.1913E+01  0.1128E+02
   3.670  0.1827E+01  0.1128E+02
   3.675  0.1737E+01  0.1129E+02
   3.680  0.1644E+01  0.1130E+02
   3.685  0.1552E+01  0.1131E+02
   3.690  0.1460E+01  0.1132E+02
   3.695  0.1372E+01  0.1132E+02
   3.700  0.1288E+01  0.1133E+02
   3.705  0.1210E+01  0.1134E+02
   3.710  0.1139E+01  0.1134E+02
   3.715  0.1075E+01  0.1135E+02
   3.720  0.1018E+01  0.1135E+02
   3.725  0.9685E+00  0.1136E+02
   3.730  0.9266E+00  0.1136E+02
   3.735  0.8917E+00  0.1137E+02
   3.740  0.8633E+00  0.1137E+02
   3.745  0.8407E+00  0.1137E+02
   3.750  0.8232E+00  0.1138E+02
   3.755  0.8102E+00  0.1138E+02
   3.760  0.8011E+00  0.1139E+02
   3.765  0.7953E+00  0.1139E+02
   3.770  0.7924E+00  0.1139E+02
   3.775  0.7919E+00  0.1140E+02
   3.780  0.7935E+00  0.1140E+02
   3.785  0.7969E+00  0.1141E+02
   3.790  0.8020E+00  0.1141E+02
   3.795  0.8084E+00  0.1141E+02
   3.800  0.8160E+00  0.1142E+02
   3.805  0.8247E+00  0.1142E+02
   3.810  0.8340E+00  0.1143E+02
   3.815  0.8439E+00  0.1143E+02
   3.820  0.8539E+00  0.1144E+02
   3.825  0.8638E+00  0.1144E+02
   3.830  0.8734E+00  0.1144E+02
   3.835  0.8822E+00  0.1145E+02
   3.840  0.8901E+00  0.1145E+02
   3.845  0.8969E+00  0.1146E+02
   3.850  0.9026E+00  0.1146E+02
   3.855  0.9072E+00  0.1147E+02
   3.860  0.9108E+00  0.1147E+02
   3.865  0.9136E+00  0.1148E+02
   3.870  0.9158E+00  0.1148E+02
   3.875  0.9179E+00  0.1148E+02
   3.880  0.9202E+00  0.1149E+02
   3.885  0.9229E+00  0.1149E+02
   3.890  0.9265E+00  0.1150E+02
   3.895  0.9310E+00  0.1150E+02
   3.900  0.9365E+00  0.1151E+02
   3.905  0.9431E+00  0.1151E+02
   3.910  0.9505E+00  0.1152E+02
   3.915  0.9583E+00  0.1152E+02
   3.920  0.9662E+00  0.1153E+02
   3.925  0.9736E+00  0.1153E+02
   3.930  0.9799E+00  0.1154E+02
   3.935  0.9845E+00  0.1154E+02
   3.940  0.9868E+00  0.1155E+02
   3.945  0.9864E+00  0.1155E+02
   3.950  0.9829E+00  0.1156E+02
   3.955  0.9760E+00  0.1156E+02
   3.960  0.9658E+00  0.1157E+02
   3.965  0.9524E+00  0.1157E+02
   3.970  0.9362E+00  0.1158E+02
   3.975  0.9177E+00  0.1158E+02
   3.980  0.8976E+00  0.1158E+02
   3.985  0.8766E+00  0.1159E+02
   3.990  0.8556E+00  0.1159E+02
   3.995  0.8354E+00  0.1160E+02
   4.000  0.8169E+00  0.1160E+02
   4.005  0.8006E+00  0.1161E+02
   4.010  0.7872E+00  0.1161E+02
   4.015  0.7771E+00  0.1161E+02
   4.020  0.7705E+00  0.1162E+02
   4.025  0.7673E+00  0.1162E+02
   4.030  0.7674E+00  0.1162E+02
   4.035  0.7704E+00  0.1163E+02
   4.040  0.7758E+00  0.1163E+02
   4.045  0.7829E+00  0.1164E+02
   4.050  0.7910E+00  0.1164E+02
   4.055  0.7992E+00  0.1164E+02
   4.060  0.8068E+00  0.1165E+02
   4.065  0.8132E+00  0.1165E+02
   4.070  0.8176E+00  0.1166E+02
   4.075  0.8196E+00  0.1166E+02
   4.080  0.8189E+00  0.1166E+02
   4.085  0.8154E+00  0.1167E+02
   4.090  0.8092E+00  0.1167E+02
   4.095  0.8006E+00  0.1168E+02
   4.100  0.7900E+00  0.1168E+02
   4.105  0.7780E+00  0.1168E+02
   4.110  0.7654E+00  0.1169E+02
   4.115  0.7529E+00  0.1169E+02
   4.120  0.7414E+00  0.1170E+02
   4.125  0.7318E+00  0.1170E+02
   4.130  0.7249E+00  0.1170E+02
   4.135  0.7215E+00  0.1171E+02
   4.140  0.7222E+00  0.1171E+02
   4.145  0.7276E+00  0.1171E+02
   4.150  0.7383E+00  0.1172E+02
   4.155  0.7545E+00  0.1172E+02
   4.160  0.7766E+00  0.1173E+02
   4.165  0.8047E+00  0.1173E+02
   4.170  0.8390E+00  0.1173E+02
   4.175  0.8794E+00  0.1174E+02
   4.180  0.9260E+00  0.1174E+02
   4.185  0.9785E+00  0.1175E+02
   4.190  0.1037E+01  0.1175E+02
   4.195  0.1100E+01  0.1176E+02
   4.200  0.1169E+01  0.1176E+02
   4.205  0.1242E+01  0.1177E+02
   4.210  0.1319E+01  0.1178E+02
   4.215  0.1399E+01  0.1178E+02
   4.220  0.1480E+01  0.1179E+02
   4.225  0.1563E+01  0.1180E+02
   4.230  0.1645E+01  0.1181E+02
   4.235  0.1726E+01  0.1182E+02
   4.240  0.1803E+01  0.1183E+02
   4.245  0.1876E+01  0.1183E+02
   4.250  0.1944E+01  0.1184E+02
   4.255  0.2004E+01  0.1185E+02
   4.260  0.2057E+01  0.1186E+02
   4.265  0.2100E+01  0.1188E+02
   4.270  0.2133E+01  0.1189E+02
   4.275  0.2156E+01  0.1190E+02
   4.280  0.2168E+01  0.1191E+02
   4.285  0.2168E+01  0.1192E+02
   4.290  0.2158E+01  0.1193E+02
   4.295  0.2137E+01  0.1194E+02
   4.300  0.2106E+01  0.1195E+02
   4.305  0.2066E+01  0.1196E+02
   4.310  0.2018E+01  0.1197E+02
   4.315  0.1962E+01  0.1198E+02
   4.320  0.1900E+01  0.1199E+02
   4.325  0.1834E+01  0.1200E+02
   4.330  0.1764E+01  0.1201E+02
   4.335  0.1692E+01  0.1202E+02
   4.340  0.1620E+01  0.1202E+02
   4.345  0.1549E+01  0.1203E+02
   4.350  0.1480E+01  0.1204E+02
   4.355  0.1414E+01  0.1205E+02
   4.360  0.1353E+01  0.1205E+02
   4.365  0.1297E+01  0.1206E+02
   4.370  0.1248E+01  0.1207E+02
   4.375  0.1206E+01  0.1207E+02
   4.380  0.1171E+01  0.1208E+02
   4.385  0.1144E+01  0.1208E+02
   4.390  0.1125E+01  0.1209E+02
   4.395  0.1113E+01  0.1209E+02
   4.400  0.1108E+01  0.1210E+02
   4.405  0.1109E+01  0.1211E+02
   4.410  0.1115E+01  0.1211E+02
   4.415  0.1126E+01  0.1212E+02
   4.420  0.1141E+01  0.1212E+02
   4.425  0.1157E+01  0.1213E+02
   4.430  0.1174E+01  0.1213E+02
   4.435  0.1191E+01  0.1214E+02
   4.440  0.1206E+01  0.1215E+02
   4.445  0.1218E+01  0.1215E+02
   4.450  0.1226E+01  0.1216E+02
   4.455  0.1228E+01  0.1216E+02
   4.460  0.1225E+01  0.1217E+02
   4.465  0.1216E+01  0.1218E+02
   4.470  0.1200E+01  0.1218E+02
   4.475  0.1177E+01  0.1219E+02
   4.480  0.1147E+01  0.1219E+02
   4.485  0.1112E+01  0.1220E+02
   4.490  0.1070E+01  0.1221E+02
   4.495  0.1024E+01  0.1221E+02
   4.500  0.9746E+00  0.1222E+02
   4.505  0.9227E+00  0.1222E+02
   4.510  0.8698E+00  0.1222E+02
   4.515  0.8173E+00  0.1223E+02
   4.520  0.7667E+00  0.1223E+02
   4.525  0.7192E+00  0.1224E+02
   4.530  0.6761E+00  0.1224E+02
   4.535  0.6385E+00  0.1224E+02
   4.540  0.6073E+00  0.1225E+02
   4.545  0.5831E+00  0.1225E+02
   4.550  0.5664E+00  0.1225E+02
   4.555  0.5572E+00  0.1225E+02
   4.560  0.5555E+00  0.1226E+02
   4.565  0.5609E+00  0.1226E+02
   4.570  0.5728E+00  0.1226E+02
   4.575  0.5904E+00  0.1227E+02
   4.580  0.6127E+00  0.1227E+02
   4.585  0.6387E+00  0.1227E+02
   4.590  0.6671E+00  0.1228E+02
   4.595  0.6967E+00  0.1228E+02
   4.600  0.7265E+00  0.1228E+02
   4.605  0.7551E+00  0.1229E+02
   4.610  0.7816E+00  0.1229E+02
   4.615  0.8050E+00  0.1229E+02
   4.620  0.8247E+00  0.1230E+02
   4.625  0.8398E+00  0.1230E+02
   4.630  0.8501E+00  0.1231E+02
   4.635  0.8552E+00  0.1231E+02
   4.640  0.8550E+00  0.1232E+02
   4.645  0.8496E+00  0.1232E+02
   4.650  0.8391E+00  0.1232E+02
   4.655  0.8239E+00  0.1233E+02
   4.660  0.8042E+00  0.1233E+02
   4.665  0.7807E+00  0.1234E+02
   4.670  0.7539E+00  0.1234E+02
   4.675  0.7244E+00  0.1234E+02
   4.680  0.6930E+00  0.1235E+02
   4.685  0.6602E+00  0.1235E+02
   4.690  0.6270E+00  0.1235E+02
   4.695  0.5939E+00  0.1236E+02
   4.700  0.5619E+00  0.1236E+02
   4.705  0.5316E+00  0.1236E+02
   4.710  0.5039E+00  0.1236E+02
   4.715  0.4794E+00  0.1237E+02
   4.720  0.4589E+00  0.1237E+02
   4.725  0.4429E+00  0.1237E+02
   4.730  0.4321E+00  0.1237E+02
   4.735  0.4268E+00  0.1238E+02
   4.740  0.4275E+00  0.1238E+02
   4.745  0.4345E+00  0.1238E+02
   4.750  0.4479E+00  0.1238E+02
   4.755  0.4677E+00  0.1238E+02
   4.760  0.4939E+00  0.1239E+02
   4.765  0.5261E+00  0.1239E+02
   4.770  0.5641E+00  0.1239E+02
   4.775  0.6073E+00  0.1239E+02
   4.780  0.6552E+00  0.1240E+02
   4.785  0.7069E+00  0.1240E+02
   4.790  0.7616E+00  0.1241E+02
   4.795  0.8182E+00  0.1241E+02
   4.800  0.8758E+00  0.1241E+02
   4.805  0.9331E+00  0.1242E+02
   4.810  0.9890E+00  0.1242E+02
   4.815  0.1042E+01  0.1243E+02
   4.820  0.1091E+01  0.1243E+02
   4.825  0.1135E+01  0.1244E+02
   4.830  0.1173E+01  0.1245E+02
   4.835  0.1204E+01  0.1245E+02
   4.840  0.1227E+01  0.1246E+02
   4.845  0.1241E+01  0.1246E+02
   4.850  0.1246E+01  0.1247E+02
   4.855  0.1241E+01  0.1248E+02
   4.860  0.1227E+01  0.1248E+02
   4.865  0.1205E+01  0.1249E+02
   4.870  0.1174E+01  0.1249E+02
   4.875  0.1136E+01  0.1250E+02
   4.880  0.1091E+01  0.1251E+02
   4.885  0.1041E+01  0.1251E+02
   4.890  0.9874E+00  0.1252E+02
   4.895  0.9312E+00  0.1252E+02
   4.900  0.8742E+00  0.1253E+02
   4.905  0.8178E+00  0.1253E+02
   4.910  0.7636E+00  0.1253E+02
   4.915  0.7130E+00  0.1254E+02
   4.920  0.6674E+00  0.1254E+02
   4.925  0.6280E+00  0.1254E+02
   4.930  0.5958E+00  0.1255E+02
   4.935  0.5717E+00  0.1255E+02
   4.940  0.5565E+00  0.1255E+02
   4.945  0.5508E+00  0.1255E+02
   4.950  0.5549E+00  0.1256E+02
   4.955  0.5690E+00  0.1256E+02
   4.960  0.5932E+00  0.1256E+02
   4.965  0.6274E+00  0.1257E+02
   4.970  0.6713E+00  0.1257E+02
   4.975  0.7246E+00  0.1257E+02
   4.980  0.7867E+00  0.1258E+02
   4.985  0.8570E+00  0.1258E+02
   4.990  0.9346E+00  0.1259E+02
   4.995  0.1019E+01  0.1259E+02
   5.000  0.1108E+01  0.1260E+02
   5.005  0.1201E+01  0.1260E+02
   5.010  0.1298E+01  0.1261E+02
   5.015  0.1395E+01  0.1262E+02
   5.020  0.1493E+01  0.1262E+02
   5.025  0.1589E+01  0.1263E+02
   5.030  0.1682E+01  0.1264E+02
   5.035  0.1771E+01  0.1265E+02
   5.040  0.1853E+01  0.1266E+02
   5.045  0.1928E+01  0.1267E+02
   5.050  0.1994E+01  0.1268E+02
   5.055  0.2050E+01  0.1269E+02
   5.060  0.2096E+01  0.1270E+02
   5.065  0.2131E+01  0.1271E+02
   5.070  0.2155E+01  0.1272E+02
   5.075  0.2168E+01  0.1273E+02
   5.080  0.2171E+01  0.1274E+02
   5.085  0.2162E+01  0.1275E+02
   5.090  0.2144E+01  0.1276E+02
   5.095  0.2117E+01  0.1277E+02
   5.100  0.2082E+01  0.1278E+02
   5.105  0.2040E+01  0.1279E+02
   5.110  0.1991E+01  0.1280E+02
   5.115  0.1938E+01  0.1281E+02
   5.120  0.1879E+01  0.1282E+02
   5.125  0.1818E+01  0.1283E+02
   5.130  0.1753E+01  0.1284E+02
   5.135  0.1687E+01  0.1285E+02
   5.140  0.1620E+01  0.1286E+02
   5.145  0.1553E+01  0.1287E+02
   5.150  0.1486E+01  0.1287E+02
   5.155  0.1421E+01  0.1288E+02
   5.160  0.1359E+01  0.1289E+02
   5.165  0.1300E+01  0.1289E+02
   5.170  0.1245E+01  0.1290E+02
   5.175  0.1194E+01  0.1291E+02
   5.180  0.1149E+01  0.1291E+02
   5.185  0.1110E+01  0.1292E+02
   5.190  0.1077E+01  0.1292E+02
   5.195  0.1050E+01  0.1293E+02
   5.200  0.1030E+01  0.1293E+02
   5.205  0.1016E+01  0.1294E+02
   5.210  0.1009E+01  0.1294E+02
   5.215  0.1007E+01  0.1295E+02
   5.220  0.1010E+01  0.1295E+02
   5.225  0.1018E+01  0.1296E+02
   5.230  0.1030E+01  0.1296E+02
   5.235  0.1045E+01  0.1297E+02
   5.240  0.1063E+01  0.1297E+02
   5.245  0.1082E+01  0.1298E+02
   5.250  0.1103E+01  0.1298E+02
   5.255  0.1124E+01  0.1299E+02
   5.260  0.1146E+01  0.1300E+02
   5.265  0.1167E+01  0.1300E+02
   5.270  0.1188E+01  0.1301E+02
   5.275  0.1208E+01  0.1301E+02
   5.280  0.1227E+01  0.1302E+02
   5.285  0.1245E+01  0.1303E+02
   5.290  0.1262E+01  0.1303E+02
   5.295  0.1277E+01  0.1304E+02
   5.300  0.1291E+01  0.1305E+02
   5.305  0.1304E+01  0.1305E+02
   5.310  0.1315E+01  0.1306E+02
   5.315  0.1325E+01  0.1306E+02
   5.320  0.1332E+01  0.1307E+02
   5.325  0.1338E+01  0.1308E+02
   5.330  0.1342E+01  0.1308E+02
   5.335  0.1344E+01  0.1309E+02
   5.340  0.1343E+01  0.1310E+02
   5.345  0.1341E+01  0.1310E+02
   5.350  0.1336E+01  0.1311E+02
   5.355  0.1329E+01  0.1312E+02
   5.360  0.1320E+01  0.1312E+02
   5.365  0.1310E+01  0.1313E+02
   5.370  0.1298E+01  0.1314E+02
   5.375  0.1285E+01  0.1314E+02
   5.380  0.1273E+01  0.1315E+02
   5.385  0.1260E+01  0.1316E+02
   5.390  0.1248E+01  0.1316E+02
   5.395  0.1238E+01  0.1317E+02
   5.400  0.1229E+01  0.1318E+02
   5.405  0.1222E+01  0.1318E+02
   5.410  0.1218E+01  0.1319E+02
   5.415  0.1217E+01  0.1319E+02
   5.420  0.1218E+01  0.1320E+02
   5.425  0.1221E+01  0.1321E+02
   5.430  0.1227E+01  0.1321E+02
   5.435  0.1235E+01  0.1322E+02
   5.440  0.1243E+01  0.1322E+02
   5.445  0.1253E+01  0.1323E+02
   5.450  0.1263E+01  0.1324E+02
   5.455  0.1272E+01  0.1324E+02
   5.460  0.1280E+01  0.1325E+02
   5.465  0.1287E+01  0.1326E+02
   5.470  0.1292E+01  0.1326E+02
   5.475  0.1294E+01  0.1327E+02
   5.480  0.1293E+01  0.1328E+02
   5.485  0.1289E+01  0.1328E+02
   5.490  0.1283E+01  0.1329E+02
   5.495  0.1274E+01  0.1330E+02
   5.500  0.1262E+01  0.1330E+02
   5.505  0.1249E+01  0.1331E+02
   5.510  0.1234E+01  0.1331E+02
   5.515  0.1218E+01  0.1332E+02
   5.520  0.1203E+01  0.1333E+02
   5.525  0.1188E+01  0.1333E+02
   5.530  0.1175E+01  0.1334E+02
   5.535  0.1165E+01  0.1334E+02
   5.540  0.1158E+01  0.1335E+02
   5.545  0.1155E+01  0.1336E+02
   5.550  0.1157E+01  0.1336E+02
   5.555  0.1163E+01  0.1337E+02
   5.560  0.1175E+01  0.1337E+02
   5.565  0.1193E+01  0.1338E+02
   5.570  0.1215E+01  0.1338E+02
   5.575  0.1241E+01  0.1339E+02
   5.580  0.1271E+01  0.1340E+02
   5.585  0.1304E+01  0.1340E+02
   5.590  0.1338E+01  0.1341E+02
   5.595  0.1373E+01  0.1342E+02
   5.600  0.1407E+01  0.1342E+02
   5.605  0.1440E+01  0.1343E+02
   5.610  0.1471E+01  0.1344E+02
   5.615  0.1498E+01  0.1345E+02
   5.620  0.1521E+01  0.1345E+02
   5.625  0.1541E+01  0.1346E+02
   5.630  0.1556E+01  0.1347E+02
   5.635  0.1568E+01  0.1348E+02
   5.640  0.1577E+01  0.1349E+02
   5.645  0.1583E+01  0.1349E+02
   5.650  0.1589E+01  0.1350E+02
   5.655  0.1594E+01  0.1351E+02
   5.660  0.1601E+01  0.1352E+02
   5.665  0.1609E+01  0.1352E+02
   5.670  0.1622E+01  0.1353E+02
   5.675  0.1639E+01  0.1354E+02
   5.680  0.1661E+01  0.1355E+02
   5.685  0.1689E+01  0.1356E+02
   5.690  0.1722E+01  0.1357E+02
   5.695  0.1762E+01  0.1358E+02
   5.700  0.1806E+01  0.1358E+02
   5.705  0.1855E+01  0.1359E+02
   5.710  0.1907E+01  0.1360E+02
   5.715  0.1960E+01  0.1361E+02
   5.720  0.2014E+01  0.1362E+02
   5.725  0.2065E+01  0.1363E+02
   5.730  0.2112E+01  0.1364E+02
   5.735  0.2154E+01  0.1365E+02
   5.740  0.2188E+01  0.1367E+02
   5.745  0.2213E+01  0.1368E+02
   5.750  0.2228E+01  0.1369E+02
   5.755  0.2232E+01  0.1370E+02
   5.760  0.2225E+01  0.1371E+02
   5.765  0.2207E+01  0.1372E+02
   5.770  0.2177E+01  0.1373E+02
   5.775  0.2138E+01  0.1374E+02
   5.780  0.2091E+01  0.1375E+02
   5.785  0.2036E+01  0.1376E+02
   5.790  0.1978E+01  0.1377E+02
   5.795  0.1916E+01  0.1378E+02
   5.800  0.1855E+01  0.1379E+02
   5.805  0.1797E+01  0.1380E+02
   5.810  0.1743E+01  0.1381E+02
   5.815  0.1696E+01  0.1382E+02
   5.820  0.1658E+01  0.1383E+02
   5.825  0.1629E+01  0.1383E+02
   5.830  0.1612E+01  0.1384E+02
   5.835  0.1606E+01  0.1385E+02
   5.840  0.1612E+01  0.1386E+02
   5.845  0.1629E+01  0.1387E+02
   5.850  0.1655E+01  0.1388E+02
   5.855  0.1691E+01  0.1388E+02
   5.860  0.1733E+01  0.1389E+02
   5.865  0.1780E+01  0.1390E+02
   5.870  0.1830E+01  0.1391E+02
   5.875  0.1880E+01  0.1392E+02
   5.880  0.1928E+01  0.1393E+02
   5.885  0.1972E+01  0.1394E+02
   5.890  0.2009E+01  0.1395E+02
   5.895  0.2039E+01  0.1396E+02
   5.900  0.2058E+01  0.1397E+02
   5.905  0.2067E+01  0.1398E+02
   5.910  0.2065E+01  0.1399E+02
   5.915  0.2050E+01  0.1400E+02
   5.920  0.2023E+01  0.1401E+02
   5.925  0.1985E+01  0.1402E+02
   5.930  0.1935E+01  0.1403E+02
   5.935  0.1874E+01  0.1404E+02
   5.940  0.1804E+01  0.1405E+02
   5.945  0.1726E+01  0.1406E+02
   5.950  0.1641E+01  0.1407E+02
   5.955  0.1551E+01  0.1407E+02
   5.960  0.1457E+01  0.1408E+02
   5.965  0.1360E+01  0.1409E+02
   5.970  0.1263E+01  0.1409E+02
   5.975  0.1166E+01  0.1410E+02
   5.980  0.1071E+01  0.1411E+02
   5.985  0.9789E+00  0.1411E+02
   5.990  0.8911E+00  0.1411E+02
   5.995  0.8086E+00  0.1412E+02
   6.000  0.7321E+00  0.1412E+02
   6.005  0.6626E+00  0.1413E+02
   6.010  0.6005E+00  0.1413E+02
   6.015  0.5462E+00  0.1413E+02
   6.020  0.5001E+00  0.1413E+02
   6.025  0.4623E+00  0.1414E+02
   6.030  0.4326E+00  0.1414E+02
   6.035  0.4108E+00  0.1414E+02
   6.040  0.3965E+00  0.1414E+02
   6.045  0.3892E+00  0.1414E+02
   6.050  0.3882E+00  0.1415E+02
   6.055  0.3929E+00  0.1415E+02
   6.060  0.4024E+00  0.1415E+02
   6.065  0.4159E+00  0.1415E+02
   6.070  0.4325E+00  0.1415E+02
   6.075  0.4515E+00  0.1416E+02
   6.080  0.4721E+00  0.1416E+02
   6.085  0.4936E+00  0.1416E+02
   6.090  0.5155E+00  0.1416E+02
   6.095  0.5374E+00  0.1417E+02
   6.100  0.5588E+00  0.1417E+02
   6.105  0.5795E+00  0.1417E+02
   6.110  0.5994E+00  0.1418E+02
   6.115  0.6185E+00  0.1418E+02
   6.120  0.6366E+00  0.1418E+02
   6.125  0.6538E+00  0.1419E+02
   6.130  0.6702E+00  0.1419E+02
   6.135  0.6856E+00  0.1419E+02
   6.140  0.7001E+00  0.1420E+02
   6.145  0.7136E+00  0.1420E+02
   6.150  0.7260E+00  0.1420E+02
   6.155  0.7371E+00  0.1421E+02
   6.160  0.7468E+00  0.1421E+02
   6.165  0.7551E+00  0.1421E+02
   6.170  0.7618E+00  0.1422E+02
   6.175  0.7671E+00  0.1422E+02
   6.180  0.7710E+00  0.1423E+02
   6.185  0.7739E+00  0.1423E+02
   6.190  0.7762E+00  0.1423E+02
   6.195  0.7785E+00  0.1424E+02
   6.200  0.7815E+00  0.1424E+02
   6.205  0.7862E+00  0.1424E+02
   6.210  0.7934E+00  0.1425E+02
   6.215  0.8042E+00  0.1425E+02
   6.220  0.8195E+00  0.1426E+02
   6.225  0.8403E+00  0.1426E+02
   6.230  0.8672E+00  0.1427E+02
   6.235  0.9008E+00  0.1427E+02
   6.240  0.9414E+00  0.1427E+02
   6.245  0.9891E+00  0.1428E+02
   6.250  0.1044E+01  0.1428E+02
   6.255  0.1104E+01  0.1429E+02
   6.260  0.1170E+01  0.1430E+02
   6.265  0.1240E+01  0.1430E+02
   6.270  0.1313E+01  0.1431E+02
   6.275  0.1387E+01  0.1432E+02
   6.280  0.1460E+01  0.1432E+02
   6.285  0.1530E+01  0.1433E+02
   6.290  0.1597E+01  0.1434E+02
   6.295  0.1657E+01  0.1435E+02
   6.300  0.1710E+01  0.1436E+02
   6.305  0.1754E+01  0.1436E+02
   6.310  0.1788E+01  0.1437E+02
   6.315  0.1811E+01  0.1438E+02
   6.320  0.1823E+01  0.1439E+02
   6.325  0.1824E+01  0.1440E+02
   6.330  0.1814E+01  0.1441E+02
   6.335  0.1793E+01  0.1442E+02
   6.340  0.1763E+01  0.1443E+02
   6.345  0.1724E+01  0.1444E+02
   6.350  0.1678E+01  0.1444E+02
   6.355  0.1626E+01  0.1445E+02
   6.360  0.1570E+01  0.1446E+02
   6.365  0.1511E+01  0.1447E+02
   6.370  0.1451E+01  0.1448E+02
   6.375  0.1392E+01  0.1448E+02
   6.380  0.1335E+01  0.1449E+02
   6.385  0.1283E+01  0.1450E+02
   6.390  0.1238E+01  0.1450E+02
   6.395  0.1200E+01  0.1451E+02
   6.400  0.1171E+01  0.1451E+02
   6.405  0.1153E+01  0.1452E+02
   6.410  0.1146E+01  0.1452E+02
   6.415  0.1152E+01  0.1453E+02
   6.420  0.1172E+01  0.1454E+02
   6.425  0.1205E+01  0.1454E+02
   6.430  0.1251E+01  0.1455E+02
   6.435  0.1310E+01  0.1456E+02
   6.440  0.1382E+01  0.1456E+02
   6.445  0.1464E+01  0.1457E+02
   6.450  0.1554E+01  0.1458E+02
   6.455  0.1652E+01  0.1459E+02
   6.460  0.1754E+01  0.1459E+02
   6.465  0.1858E+01  0.1460E+02
   6.470  0.1961E+01  0.1461E+02
   6.475  0.2060E+01  0.1462E+02
   6.480  0.2152E+01  0.1463E+02
   6.485  0.2234E+01  0.1465E+02
   6.490  0.2304E+01  0.1466E+02
   6.495  0.2360E+01  0.1467E+02
   6.500  0.2401E+01  0.1468E+02
   6.505  0.2424E+01  0.1469E+02
   6.510  0.2429E+01  0.1471E+02
   6.515  0.2417E+01  0.1472E+02
   6.520  0.2387E+01  0.1473E+02
   6.525  0.2341E+01  0.1474E+02
   6.530  0.2281E+01  0.1475E+02
   6.535  0.2206E+01  0.1476E+02
   6.540  0.2121E+01  0.1477E+02
   6.545  0.2027E+01  0.1478E+02
   6.550  0.1926E+01  0.1479E+02
   6.555  0.1821E+01  0.1480E+02
   6.560  0.1715E+01  0.1481E+02
   6.565  0.1609E+01  0.1482E+02
   6.570  0.1505E+01  0.1483E+02
   6.575  0.1405E+01  0.1483E+02
   6.580  0.1312E+01  0.1484E+02
   6.585  0.1225E+01  0.1485E+02
   6.590  0.1148E+01  0.1485E+02
   6.595  0.1079E+01  0.1486E+02
   6.600  0.1021E+01  0.1486E+02
   6.605  0.9741E+00  0.1487E+02
   6.610  0.9379E+00  0.1487E+02
   6.615  0.9127E+00  0.1488E+02
   6.620  0.8985E+00  0.1488E+02
   6.625  0.8948E+00  0.1489E+02
   6.630  0.9010E+00  0.1489E+02
   6.635  0.9162E+00  0.1490E+02
   6.640  0.9394E+00  0.1490E+02
   6.645  0.9691E+00  0.1490E+02
   6.650  0.1004E+01  0.1491E+02
   6.655  0.1042E+01  0.1491E+02
   6.660  0.1082E+01  0.1492E+02
   6.665  0.1122E+01  0.1493E+02
   6.670  0.1160E+01  0.1493E+02
   6.675  0.1193E+01  0.1494E+02
   6.680  0.1222E+01  0.1494E+02
   6.685  0.1243E+01  0.1495E+02
   6.690  0.1256E+01  0.1496E+02
   6.695  0.1260E+01  0.1496E+02
   6.700  0.1255E+01  0.1497E+02
   6.705  0.1240E+01  0.1497E+02
   6.710  0.1215E+01  0.1498E+02
   6.715  0.1180E+01  0.1499E+02
   6.720  0.1137E+01  0.1499E+02
   6.725  0.1086E+01  0.1500E+02
   6.730  0.1028E+01  0.1500E+02
   6.735  0.9657E+00  0.1501E+02
   6.740  0.8990E+00  0.1501E+02
   6.745  0.8299E+00  0.1502E+02
   6.750  0.7596E+00  0.1502E+02
   6.755  0.6895E+00  0.1502E+02
   6.760  0.6207E+00  0.1503E+02
   6.765  0.5544E+00  0.1503E+02
   6.770  0.4914E+00  0.1503E+02
   6.775  0.4326E+00  0.1503E+02
   6.780  0.3784E+00  0.1504E+02
   6.785  0.3293E+00  0.1504E+02
   6.790  0.2858E+00  0.1504E+02
   6.795  0.2480E+00  0.1504E+02
   6.800  0.2160E+00  0.1504E+02
   6.805  0.1900E+00  0.1504E+02
   6.810  0.1701E+00  0.1504E+02
   6.815  0.1561E+00  0.1504E+02
   6.820  0.1483E+00  0.1505E+02
   6.825  0.1467E+00  0.1505E+02
   6.830  0.1513E+00  0.1505E+02
   6.835  0.1623E+00  0.1505E+02
   6.840  0.1798E+00  0.1505E+02
   6.845  0.2039E+00  0.1505E+02
   6.850  0.2347E+00  0.1505E+02
   6.855  0.2725E+00  0.1505E+02
   6.860  0.3171E+00  0.1505E+02
   6.865  0.3688E+00  0.1506E+02
   6.870  0.4272E+00  0.1506E+02
   6.875  0.4924E+00  0.1506E+02
   6.880  0.5639E+00  0.1506E+02
   6.885  0.6413E+00  0.1507E+02
   6.890  0.7241E+00  0.1507E+02
   6.895  0.8116E+00  0.1507E+02
   6.900  0.9028E+00  0.1508E+02
   6.905  0.9968E+00  0.1508E+02
   6.910  0.1092E+01  0.1509E+02
   6.915  0.1188E+01  0.1509E+02
   6.920  0.1284E+01  0.1510E+02
   6.925  0.1377E+01  0.1511E+02
   6.930  0.1467E+01  0.1512E+02
   6.935  0.1551E+01  0.1512E+02
   6.940  0.1630E+01  0.1513E+02
   6.945  0.1702E+01  0.1514E+02
   6.950  0.1765E+01  0.1515E+02
   6.955  0.1818E+01  0.1516E+02
   6.960  0.1862E+01  0.1517E+02
   6.965  0.1895E+01  0.1518E+02
   6.970  0.1917E+01  0.1519E+02
   6.975  0.1929E+01  0.1520E+02
   6.980  0.1929E+01  0.1521E+02
   6.985  0.1920E+01  0.1521E+02
   6.990  0.1901E+01  0.1522E+02
   6.995  0.1874E+01  0.1523E+02
   7.000  0.1840E+01  0.1524E+02
   7.005  0.1801E+01  0.1525E+02
   7.010  0.1757E+01  0.1526E+02
   7.015  0.1712E+01  0.1527E+02
   7.020  0.1667E+01  0.1528E+02
   7.025  0.1622E+01  0.1529E+02
   7.030  0.1581E+01  0.1529E+02
   7.035  0.1544E+01  0.1530E+02
   7.040  0.1512E+01  0.1531E+02
   7.045  0.1485E+01  0.1532E+02
   7.050  0.1465E+01  0.1532E+02
   7.055  0.1450E+01  0.1533E+02
   7.060  0.1441E+01  0.1534E+02
   7.065  0.1437E+01  0.1535E+02
   7.070  0.1436E+01  0.1535E+02
   7.075  0.1437E+01  0.1536E+02
   7.080  0.1439E+01  0.1537E+02
   7.085  0.1440E+01  0.1537E+02
   7.090  0.1439E+01  0.1538E+02
   7.095  0.1434E+01  0.1539E+02
   7.100  0.1425E+01  0.1540E+02
   7.105  0.1409E+01  0.1540E+02
   7.110  0.1388E+01  0.1541E+02
   7.115  0.1360E+01  0.1542E+02
   7.120  0.1325E+01  0.1542E+02
   7.125  0.1284E+01  0.1543E+02
   7.130  0.1237E+01  0.1544E+02
   7.135  0.1184E+01  0.1544E+02
   7.140  0.1128E+01  0.1545E+02
   7.145  0.1068E+01  0.1545E+02
   7.150  0.1006E+01  0.1546E+02
   7.155  0.9439E+00  0.1546E+02
   7.160  0.8817E+00  0.1547E+02
   7.165  0.8207E+00  0.1547E+02
   7.170  0.7619E+00  0.1547E+02
   7.175  0.7060E+00  0.1548E+02
   7.180  0.6536E+00  0.1548E+02
   7.185  0.6051E+00  0.1548E+02
   7.190  0.5608E+00  0.1549E+02
   7.195  0.5207E+00  0.1549E+02
   7.200  0.4848E+00  0.1549E+02
   7.205  0.4530E+00  0.1549E+02
   7.210  0.4251E+00  0.1550E+02
   7.215  0.4007E+00  0.1550E+02
   7.220  0.3796E+00  0.1550E+02
   7.225  0.3615E+00  0.1550E+02
   7.230  0.3461E+00  0.1550E+02
   7.235  0.3331E+00  0.1551E+02
   7.240  0.3223E+00  0.1551E+02
   7.245  0.3137E+00  0.1551E+02
   7.250  0.3072E+00  0.1551E+02
   7.255  0.3026E+00  0.1551E+02
   7.260  0.3000E+00  0.1551E+02
   7.265  0.2995E+00  0.1551E+02
   7.270  0.3011E+00  0.1552E+02
   7.275  0.3048E+00  0.1552E+02
   7.280  0.3107E+00  0.1552E+02
   7.285  0.3187E+00  0.1552E+02
   7.290  0.3288E+00  0.1552E+02
   7.295  0.3410E+00  0.1552E+02
   7.300  0.3551E+00  0.1553E+02
   7.305  0.3711E+00  0.1553E+02
   7.310  0.3887E+00  0.1553E+02
   7.315  0.4077E+00  0.1553E+02
   7.320  0.4279E+00  0.1553E+02
   7.325  0.4490E+00  0.1554E+02
   7.330  0.4708E+00  0.1554E+02
   7.335  0.4929E+00  0.1554E+02
   7.340  0.5152E+00  0.1554E+02
   7.345  0.5373E+00  0.1555E+02
   7.350  0.5590E+00  0.1555E+02
   7.355  0.5801E+00  0.1555E+02
   7.360  0.6004E+00  0.1556E+02
   7.365  0.6196E+00  0.1556E+02
   7.370  0.6377E+00  0.1556E+02
   7.375  0.6545E+00  0.1556E+02
   7.380  0.6699E+00  0.1557E+02
   7.385  0.6838E+00  0.1557E+02
   7.390  0.6963E+00  0.1557E+02
   7.395  0.7071E+00  0.1558E+02
   7.400  0.7162E+00  0.1558E+02
   7.405  0.7236E+00  0.1559E+02
   7.410  0.7291E+00  0.1559E+02
   7.415  0.7327E+00  0.1559E+02
   7.420  0.7342E+00  0.1560E+02
   7.425  0.7335E+00  0.1560E+02
   7.430  0.7304E+00  0.1560E+02
   7.435  0.7248E+00  0.1561E+02
   7.440  0.7167E+00  0.1561E+02
   7.445  0.7060E+00  0.1561E+02
   7.450  0.6928E+00  0.1562E+02
   7.455  0.6772E+00  0.1562E+02
   7.460  0.6594E+00  0.1562E+02
   7.465  0.6397E+00  0.1563E+02
   7.470  0.6184E+00  0.1563E+02
   7.475  0.5961E+00  0.1563E+02
   7.480  0.5734E+00  0.1564E+02
   7.485  0.5508E+00  0.1564E+02
   7.490  0.5289E+00  0.1564E+02
   7.495  0.5085E+00  0.1564E+02
   7.500  0.4901E+00  0.1565E+02
   7.505  0.4743E+00  0.1565E+02
   7.510  0.4618E+00  0.1565E+02
   7.515  0.4530E+00  0.1565E+02
   7.520  0.4484E+00  0.1566E+02
   7.525  0.4483E+00  0.1566E+02
   7.530  0.4529E+00  0.1566E+02
   7.535  0.4626E+00  0.1566E+02
   7.540  0.4774E+00  0.1567E+02
   7.545  0.4975E+00  0.1567E+02
   7.550  0.5227E+00  0.1567E+02
   7.555  0.5531E+00  0.1567E+02
   7.560  0.5884E+00  0.1568E+02
   7.565  0.6284E+00  0.1568E+02
   7.570  0.6727E+00  0.1568E+02
   7.575  0.7208E+00  0.1569E+02
   7.580  0.7720E+00  0.1569E+02
   7.585  0.8257E+00  0.1569E+02
   7.590  0.8810E+00  0.1570E+02
   7.595  0.9369E+00  0.1570E+02
   7.600  0.9923E+00  0.1571E+02
   7.605  0.1046E+01  0.1571E+02
   7.610  0.1097E+01  0.1572E+02
   7.615  0.1144E+01  0.1573E+02
   7.620  0.1186E+01  0.1573E+02
   7.625  0.1222E+01  0.1574E+02
   7.630  0.1251E+01  0.1574E+02
   7.635  0.1272E+01  0.1575E+02
   7.640  0.1284E+01  0.1576E+02
   7.645  0.1287E+01  0.1576E+02
   7.650  0.1281E+01  0.1577E+02
   7.655  0.1266E+01  0.1578E+02
   7.660  0.1242E+01  0.1578E+02
   7.665  0.1210E+01  0.1579E+02
   7.670  0.1170E+01  0.1579E+02
   7.675  0.1123E+01  0.1580E+02
   7.680  0.1069E+01  0.1580E+02
   7.685  0.1011E+01  0.1581E+02
   7.690  0.9493E+00  0.1581E+02
   7.695  0.8847E+00  0.1582E+02
   7.700  0.8187E+00  0.1582E+02
   7.705  0.7524E+00  0.1583E+02
   7.710  0.6870E+00  0.1583E+02
   7.715  0.6235E+00  0.1583E+02
   7.720  0.5630E+00  0.1584E+02
   7.725  0.5063E+00  0.1584E+02
   7.730  0.4543E+00  0.1584E+02
   7.735  0.4074E+00  0.1584E+02
   7.740  0.3664E+00  0.1584E+02
   7.745  0.3316E+00  0.1585E+02
   7.750  0.3032E+00  0.1585E+02
   7.755  0.2814E+00  0.1585E+02
   7.760  0.2663E+00  0.1585E+02
   7.765  0.2577E+00  0.1585E+02
   7.770  0.2553E+00  0.1585E+02
   7.775  0.2590E+00  0.1585E+02
   7.780  0.2682E+00  0.1586E+02
   7.785  0.2823E+00  0.1586E+02
   7.790  0.3008E+00  0.1586E+02
   7.795  0.3229E+00  0.1586E+02
   7.800  0.3478E+00  0.1586E+02
   7.805  0.3747E+00  0.1586E+02
   7.810  0.4026E+00  0.1587E+02
   7.815  0.4306E+00  0.1587E+02
   7.820  0.4579E+00  0.1587E+02
   7.825  0.4836E+00  0.1587E+02
   7.830  0.5069E+00  0.1588E+02
   7.835  0.5270E+00  0.1588E+02
   7.840  0.5434E+00  0.1588E+02
   7.845  0.5555E+00  0.1588E+02
   7.850  0.5630E+00  0.1589E+02
   7.855  0.5656E+00  0.1589E+02
   7.860  0.5633E+00  0.1589E+02
   7.865  0.5561E+00  0.1589E+02
   7.870  0.5442E+00  0.1590E+02
   7.875  0.5280E+00  0.1590E+02
   7.880  0.5078E+00  0.1590E+02
   7.885  0.4842E+00  0.1590E+02
   7.890  0.4577E+00  0.1591E+02
   7.895  0.4289E+00  0.1591E+02
   7.900  0.3985E+00  0.1591E+02
   7.905  0.3671E+00  0.1591E+02
   7.910  0.3353E+00  0.1591E+02
   7.915  0.3036E+00  0.1592E+02
   7.920  0.2726E+00  0.1592E+02
   7.925  0.2426E+00  0.1592E+02
   7.930  0.2140E+00  0.1592E+02
   7.935  0.1872E+00  0.1592E+02
   7.940  0.1623E+00  0.1592E+02
   7.945  0.1394E+00  0.1592E+02
   7.950  0.1188E+00  0.1592E+02
   7.955  0.1003E+00  0.1592E+02
   7.960  0.8390E-01  0.1592E+02
   7.965  0.6961E-01  0.1592E+02
   7.970  0.5728E-01  0.1592E+02
   7.975  0.4677E-01  0.1592E+02
   7.980  0.3796E-01  0.1592E+02
   7.985  0.3069E-01  0.1593E+02
   7.990  0.2483E-01  0.1593E+02
   7.995  0.2025E-01  0.1593E+02
   8.000  0.1685E-01  0.1593E+02
   8.005  0.1454E-01  0.1593E+02
   8.010  0.1328E-01  0.1593E+02
   8.015  0.1304E-01  0.1593E+02
   8.020  0.1385E-01  0.1593E+02
   8.025  0.1577E-01  0.1593E+02
   8.030  0.1888E-01  0.1593E+02
   8.035  0.2333E-01  0.1593E+02
   8.040  0.2927E-01  0.1593E+02
   8.045  0.3691E-01  0.1593E+02
   8.050  0.4647E-01  0.1593E+02
   8.055  0.5816E-01  0.1593E+02
   8.060  0.7222E-01  0.1593E+02
   8.065  0.8886E-01  0.1593E+02
   8.070  0.1083E+00  0.1593E+02
   8.075  0.1305E+00  0.1593E+02
   8.080  0.1558E+00  0.1593E+02
   8.085  0.1839E+00  0.1593E+02
   8.090  0.2149E+00  0.1593E+02
   8.095  0.2484E+00  0.1593E+02
   8.100  0.2840E+00  0.1593E+02
   8.105  0.3213E+00  0.1594E+02
   8.110  0.3596E+00  0.1594E+02
   8.115  0.3982E+00  0.1594E+02
   8.120  0.4362E+00  0.1594E+02
   8.125  0.4727E+00  0.1594E+02
   8.130  0.5069E+00  0.1595E+02
   8.135  0.5377E+00  0.1595E+02
   8.140  0.5642E+00  0.1595E+02
   8.145  0.5858E+00  0.1596E+02
   8.150  0.6017E+00  0.1596E+02
   8.155  0.6115E+00  0.1596E+02
   8.160  0.6147E+00  0.1596E+02
   8.165  0.6114E+00  0.1597E+02
   8.170  0.6016E+00  0.1597E+02
   8.175  0.5857E+00  0.1597E+02
   8.180  0.5641E+00  0.1598E+02
   8.185  0.5375E+00  0.1598E+02
   8.190  0.5067E+00  0.1598E+02
   8.195  0.4725E+00  0.1598E+02
   8.200  0.4360E+00  0.1599E+02
   8.205  0.3980E+00  0.1599E+02
   8.210  0.3594E+00  0.1599E+02
   8.215  0.3211E+00  0.1599E+02
   8.220  0.2838E+00  0.1599E+02
   8.225  0.2482E+00  0.1599E+02
   8.230  0.2147E+00  0.1600E+02
   8.235  0.1838E+00  0.1600E+02
   8.240  0.1556E+00  0.1600E+02
   8.245  0.1304E+00  0.1600E+02
   8.250  0.1081E+00  0.1600E+02
   8.255  0.8862E-01  0.1600E+02
   8.260  0.7189E-01  0.1600E+02
   8.265  0.5770E-01  0.1600E+02
   8.270  0.4582E-01  0.1600E+02
   8.275  0.3599E-01  0.1600E+02
   8.280  0.2797E-01  0.1600E+02
   8.285  0.2151E-01  0.1600E+02
   8.290  0.1636E-01  0.1600E+02
   8.295  0.1231E-01  0.1600E+02
   8.300  0.9168E-02  0.1600E+02
   8.305  0.6754E-02  0.1600E+02
   8.310  0.4922E-02  0.1600E+02
   8.315  0.3549E-02  0.1600E+02
   8.320  0.2531E-02  0.1600E+02
   8.325  0.1786E-02  0.1600E+02
   8.330  0.1247E-02  0.1600E+02
   8.335  0.8615E-03  0.1600E+02
   8.340  0.5887E-03  0.1600E+02
   8.345  0.3980E-03  0.1600E+02
   8.350  0.2662E-03  0.1600E+02
   8.355  0.1762E-03  0.1600E+02
   8.360  0.1153E-03  0.1600E+02
   8.365  0.7471E-04  0.1600E+02
