#  E (eV)   dos(E)     Int dos(E) EFermi =   -0.689 eV
 -15.919  0.0000E+00  0.0000E+00
 -15.909  0.3925E+01  0.1963E-01
 -15.899  0.7851E+01  0.7851E-01
 -15.889  0.5760E+01  0.1716E+00
 -15.879  0.6086E+01  0.2308E+00
 -15.869  0.6411E+01  0.2933E+00
 -15.859  0.6736E+01  0.3591E+00
 -15.849  0.7061E+01  0.4280E+00
 -15.839  0.7387E+01  0.5003E+00
 -15.829  0.7518E+01  0.5755E+00
 -15.819  0.7128E+01  0.6487E+00
 -15.809  0.6738E+01  0.7181E+00
 -15.799  0.6537E+01  0.7838E+00
 -15.789  0.6703E+01  0.8500E+00
 -15.779  0.6869E+01  0.9179E+00
 -15.769  0.7036E+01  0.9874E+00
 -15.759  0.7202E+01  0.1059E+01
 -15.749  0.7368E+01  0.1131E+01
 -15.739  0.7534E+01  0.1206E+01
 -15.729  0.7700E+01  0.1282E+01
 -15.719  0.7866E+01  0.1360E+01
 -15.709  0.1570E+02  0.1500E+01
 -15.699  0.1254E+02  0.1641E+01
 -15.689  0.9377E+01  0.1750E+01
 -15.679  0.6217E+01  0.1828E+01
 -15.669  0.3378E+01  0.1875E+01
 -15.659  0.2922E+01  0.1906E+01
 -15.649  0.2466E+01  0.1933E+01
 -15.639  0.2282E+01  0.1956E+01
 -15.629  0.2486E+01  0.1980E+01
 -15.619  0.2691E+01  0.2006E+01
 -15.609  0.2895E+01  0.2034E+01
 -15.599  0.3100E+01  0.2064E+01
 -15.589  0.3574E+01  0.2097E+01
 -15.579  0.4234E+01  0.2136E+01
 -15.569  0.4895E+01  0.2181E+01
 -15.559  0.1052E+02  0.2243E+01
 -15.549  0.2471E+02  0.2419E+01
 -15.539  0.5288E+01  0.2690E+01
 -15.529  0.5362E+01  0.2743E+01
 -15.519  0.5435E+01  0.2797E+01
 -15.509  0.5509E+01  0.2852E+01
 -15.499  0.5583E+01  0.2908E+01
 -15.489  0.5656E+01  0.2964E+01
 -15.479  0.5730E+01  0.3021E+01
 -15.469  0.5803E+01  0.3078E+01
 -15.459  0.5877E+01  0.3137E+01
 -15.449  0.5960E+01  0.3196E+01
 -15.439  0.6050E+01  0.3256E+01
 -15.429  0.6140E+01  0.3317E+01
 -15.419  0.6231E+01  0.3379E+01
 -15.409  0.6321E+01  0.3441E+01
 -15.399  0.6411E+01  0.3505E+01
 -15.389  0.6501E+01  0.3570E+01
 -15.379  0.6592E+01  0.3635E+01
 -15.369  0.6682E+01  0.3702E+01
 -15.359  0.9115E+01  0.3789E+01
 -15.349  0.8736E+01  0.3878E+01
 -15.339  0.8358E+01  0.3964E+01
 -15.329  0.7979E+01  0.4045E+01
 -15.319  0.7658E+01  0.4123E+01
 -15.309  0.7392E+01  0.4199E+01
 -15.299  0.7125E+01  0.4271E+01
 -15.289  0.7194E+01  0.4343E+01
 -15.279  0.7289E+01  0.4415E+01
 -15.269  0.7383E+01  0.4488E+01
 -15.259  0.7478E+01  0.4563E+01
 -15.249  0.7572E+01  0.4638E+01
 -15.239  0.7667E+01  0.4714E+01
 -15.229  0.7761E+01  0.4791E+01
 -15.219  0.7856E+01  0.4869E+01
 -15.209  0.7950E+01  0.4948E+01
 -15.199  0.6539E+01  0.5028E+01
 -15.189  0.6588E+01  0.5093E+01
 -15.179  0.6637E+01  0.5159E+01
 -15.169  0.6686E+01  0.5226E+01
 -15.159  0.6734E+01  0.5293E+01
 -15.149  0.6783E+01  0.5361E+01
 -15.139  0.6475E+01  0.5428E+01
 -15.129  0.6429E+01  0.5493E+01
 -15.119  0.6383E+01  0.5557E+01
 -15.109  0.6589E+01  0.5621E+01
 -15.099  0.6592E+01  0.5687E+01
 -15.089  0.6595E+01  0.5753E+01
 -15.079  0.6598E+01  0.5819E+01
 -15.069  0.6601E+01  0.5885E+01
 -15.059  0.6604E+01  0.5951E+01
 -15.049  0.6607E+01  0.6017E+01
 -15.039  0.6610E+01  0.6083E+01
 -15.029  0.8016E+01  0.6152E+01
 -15.019  0.1187E+02  0.6260E+01
 -15.009  0.1126E+02  0.6376E+01
 -14.999  0.1065E+02  0.6485E+01
 -14.989  0.1004E+02  0.6589E+01
 -14.979  0.9427E+01  0.6686E+01
 -14.969  0.8816E+01  0.6777E+01
 -14.959  0.8204E+01  0.6862E+01
 -14.949  0.7593E+01  0.6941E+01
 -14.939  0.6982E+01  0.7014E+01
 -14.929  0.6371E+01  0.7081E+01
 -14.919  0.5760E+01  0.7142E+01
 -14.909  0.5170E+01  0.7196E+01
 -14.899  0.4834E+01  0.7246E+01
 -14.889  0.4699E+01  0.7293E+01
 -14.879  0.4564E+01  0.7340E+01
 -14.869  0.4630E+01  0.7386E+01
 -14.859  0.1129E+02  0.7455E+01
 -14.849  0.9769E+01  0.7560E+01
 -14.839  0.8250E+01  0.7650E+01
 -14.829  0.6730E+01  0.7725E+01
 -14.819  0.5210E+01  0.7785E+01
 -14.809  0.3690E+01  0.7829E+01
 -14.799  0.4045E+01  0.7866E+01
 -14.789  0.4792E+01  0.7910E+01
 -14.779  0.5540E+01  0.7962E+01
 -14.769  0.6287E+01  0.8021E+01
 -14.759  0.7034E+01  0.8088E+01
 -14.749  0.7781E+01  0.8162E+01
 -14.739  0.8528E+01  0.8243E+01
 -14.729  0.9276E+01  0.8332E+01
 -14.719  0.1002E+02  0.8429E+01
 -14.709  0.1077E+02  0.8533E+01
 -14.699  0.6531E+01  0.8643E+01
 -14.689  0.5652E+01  0.8699E+01
 -14.679  0.5696E+01  0.8756E+01
 -14.669  0.5741E+01  0.8813E+01
 -14.659  0.5785E+01  0.8870E+01
 -14.649  0.5830E+01  0.8929E+01
 -14.639  0.5875E+01  0.8987E+01
 -14.629  0.5919E+01  0.9046E+01
 -14.619  0.5964E+01  0.9105E+01
 -14.609  0.6009E+01  0.9165E+01
 -14.599  0.6053E+01  0.9226E+01
 -14.589  0.6098E+01  0.9286E+01
 -14.579  0.6142E+01  0.9348E+01
 -14.569  0.6187E+01  0.9409E+01
 -14.559  0.9313E+01  0.9476E+01
 -14.549  0.1918E+02  0.9619E+01
 -14.539  0.2905E+02  0.9860E+01
 -14.529  0.6840E+01  0.1000E+02
 -14.519  0.6843E+01  0.1007E+02
 -14.509  0.6845E+01  0.1014E+02
 -14.499  0.6847E+01  0.1021E+02
 -14.489  0.6849E+01  0.1028E+02
 -14.479  0.6851E+01  0.1034E+02
 -14.469  0.6854E+01  0.1041E+02
 -14.459  0.6856E+01  0.1048E+02
 -14.449  0.6959E+01  0.1055E+02
 -14.439  0.7091E+01  0.1062E+02
 -14.429  0.7224E+01  0.1069E+02
 -14.419  0.7356E+01  0.1076E+02
 -14.409  0.7488E+01  0.1084E+02
 -14.399  0.7620E+01  0.1091E+02
 -14.389  0.7752E+01  0.1099E+02
 -14.379  0.7884E+01  0.1107E+02
 -14.369  0.8017E+01  0.1115E+02
 -14.359  0.8149E+01  0.1123E+02
 -14.349  0.8281E+01  0.1131E+02
 -14.339  0.8410E+01  0.1140E+02
 -14.329  0.8484E+01  0.1148E+02
 -14.319  0.8557E+01  0.1156E+02
 -14.309  0.8669E+01  0.1165E+02
 -14.299  0.8853E+01  0.1174E+02
 -14.289  0.9037E+01  0.1183E+02
 -14.279  0.9221E+01  0.1192E+02
 -14.269  0.9405E+01  0.1201E+02
 -14.259  0.9588E+01  0.1211E+02
 -14.249  0.9772E+01  0.1220E+02
 -14.239  0.9956E+01  0.1230E+02
 -14.229  0.1014E+02  0.1240E+02
 -14.219  0.1222E+02  0.1251E+02
 -14.209  0.1044E+02  0.1262E+02
 -14.199  0.8660E+01  0.1271E+02
 -14.189  0.6881E+01  0.1279E+02
 -14.179  0.5103E+01  0.1285E+02
 -14.169  0.3444E+01  0.1289E+02
 -14.159  0.7069E+01  0.1295E+02
 -14.149  0.1077E+02  0.1304E+02
 -14.139  0.1106E+02  0.1315E+02
 -14.129  0.1033E+02  0.1326E+02
 -14.119  0.9610E+01  0.1336E+02
 -14.109  0.8886E+01  0.1345E+02
 -14.099  0.8162E+01  0.1353E+02
 -14.089  0.7438E+01  0.1361E+02
 -14.079  0.6714E+01  0.1368E+02
 -14.069  0.3150E+01  0.1374E+02
 -14.059  0.3243E+01  0.1377E+02
 -14.049  0.3337E+01  0.1380E+02
 -14.039  0.3430E+01  0.1384E+02
 -14.029  0.3523E+01  0.1387E+02
 -14.019  0.3616E+01  0.1391E+02
 -14.009  0.3709E+01  0.1395E+02
 -13.999  0.3802E+01  0.1398E+02
 -13.989  0.3895E+01  0.1402E+02
 -13.979  0.3988E+01  0.1406E+02
 -13.969  0.4081E+01  0.1410E+02
 -13.959  0.4174E+01  0.1414E+02
 -13.949  0.4267E+01  0.1418E+02
 -13.939  0.4360E+01  0.1423E+02
 -13.929  0.4454E+01  0.1427E+02
 -13.919  0.1165E+02  0.1435E+02
 -13.909  0.1168E+02  0.1447E+02
 -13.899  0.1171E+02  0.1458E+02
 -13.889  0.1173E+02  0.1470E+02
 -13.879  0.1176E+02  0.1482E+02
 -13.869  0.1179E+02  0.1494E+02
 -13.859  0.9486E+01  0.1505E+02
 -13.849  0.6114E+01  0.1513E+02
 -13.839  0.4727E+01  0.1517E+02
 -13.829  0.6026E+01  0.1523E+02
 -13.819  0.7326E+01  0.1529E+02
 -13.809  0.8625E+01  0.1537E+02
 -13.799  0.9925E+01  0.1547E+02
 -13.789  0.1122E+02  0.1557E+02
 -13.779  0.1252E+02  0.1569E+02
 -13.769  0.2877E+02  0.1596E+02
 -13.759  0.1549E+02  0.1618E+02
 -13.749  0.1066E+02  0.1630E+02
 -13.739  0.9719E+01  0.1640E+02
 -13.729  0.8780E+01  0.1649E+02
 -13.719  0.7842E+01  0.1657E+02
 -13.709  0.7067E+01  0.1665E+02
 -13.699  0.6295E+01  0.1671E+02
 -13.689  0.5552E+01  0.1677E+02
 -13.679  0.4865E+01  0.1683E+02
 -13.669  0.4939E+01  0.1687E+02
 -13.659  0.5035E+01  0.1692E+02
 -13.649  0.5137E+01  0.1697E+02
 -13.639  0.5673E+01  0.1703E+02
 -13.629  0.6237E+01  0.1709E+02
 -13.619  0.6845E+01  0.1715E+02
 -13.609  0.7454E+01  0.1723E+02
 -13.599  0.8062E+01  0.1730E+02
 -13.589  0.8671E+01  0.1739E+02
 -13.579  0.9279E+01  0.1748E+02
 -13.569  0.9888E+01  0.1757E+02
 -13.559  0.1050E+02  0.1767E+02
 -13.549  0.1110E+02  0.1778E+02
 -13.539  0.1171E+02  0.1790E+02
 -13.529  0.1232E+02  0.1802E+02
 -13.519  0.1293E+02  0.1814E+02
 -13.509  0.1056E+02  0.1826E+02
 -13.499  0.1051E+02  0.1836E+02
 -13.489  0.1059E+02  0.1847E+02
 -13.479  0.1935E+02  0.1870E+02
 -13.469  0.1008E+02  0.1885E+02
 -13.459  0.9502E+01  0.1894E+02
 -13.449  0.9459E+01  0.1904E+02
 -13.439  0.9415E+01  0.1913E+02
 -13.429  0.9339E+01  0.1923E+02
 -13.419  0.9165E+01  0.1932E+02
 -13.409  0.8990E+01  0.1941E+02
 -13.399  0.8816E+01  0.1950E+02
 -13.389  0.8642E+01  0.1959E+02
 -13.379  0.8468E+01  0.1967E+02
 -13.369  0.8295E+01  0.1975E+02
 -13.359  0.8101E+01  0.1984E+02
 -13.349  0.7908E+01  0.1992E+02
 -13.339  0.7734E+01  0.2000E+02
 -13.329  0.7734E+01  0.2007E+02
 -13.319  0.7735E+01  0.2015E+02
 -13.309  0.7736E+01  0.2023E+02
 -13.299  0.7736E+01  0.2030E+02
 -13.289  0.7737E+01  0.2038E+02
 -13.279  0.7737E+01  0.2046E+02
 -13.269  0.1000E+02  0.2054E+02
 -13.259  0.1009E+02  0.2064E+02
 -13.249  0.1017E+02  0.2074E+02
 -13.239  0.1026E+02  0.2084E+02
 -13.229  0.1035E+02  0.2094E+02
 -13.219  0.1043E+02  0.2105E+02
 -13.209  0.1052E+02  0.2115E+02
 -13.199  0.1060E+02  0.2126E+02
 -13.189  0.1069E+02  0.2136E+02
 -13.179  0.1078E+02  0.2147E+02
 -13.169  0.1086E+02  0.2158E+02
 -13.159  0.1097E+02  0.2169E+02
 -13.149  0.1112E+02  0.2180E+02
 -13.139  0.1604E+02  0.2194E+02
 -13.129  0.2103E+02  0.2212E+02
 -13.119  0.2602E+02  0.2236E+02
 -13.109  0.1996E+02  0.2295E+02
 -13.099  0.1743E+02  0.2314E+02
 -13.089  0.1528E+02  0.2330E+02
 -13.079  0.1320E+02  0.2344E+02
 -13.069  0.1294E+02  0.2358E+02
 -13.059  0.1146E+02  0.2370E+02
 -13.049  0.9979E+01  0.2381E+02
 -13.039  0.8891E+01  0.2390E+02
 -13.029  0.8035E+01  0.2398E+02
 -13.019  0.7696E+00  0.2403E+02
 -13.009  0.1004E+01  0.2404E+02
 -12.999  0.1765E+01  0.2405E+02
 -12.989  0.2704E+01  0.2408E+02
 -12.979  0.4302E+01  0.2411E+02
 -12.969  0.5900E+01  0.2416E+02
 -12.959  0.7497E+01  0.2423E+02
 -12.949  0.9883E+01  0.2432E+02
 -12.939  0.1252E+02  0.2443E+02
 -12.929  0.1515E+02  0.2457E+02
 -12.919  0.1779E+02  0.2473E+02
 -12.909  0.2241E+02  0.2493E+02
 -12.899  0.3196E+02  0.2531E+02
 -12.889  0.2197E+02  0.2557E+02
 -12.879  0.2090E+02  0.2578E+02
 -12.869  0.1983E+02  0.2598E+02
 -12.859  0.1875E+02  0.2618E+02
 -12.849  0.1768E+02  0.2636E+02
 -12.839  0.1694E+02  0.2653E+02
 -12.829  0.1801E+02  0.2671E+02
 -12.819  0.1908E+02  0.2689E+02
 -12.809  0.2015E+02  0.2709E+02
 -12.799  0.1689E+02  0.2729E+02
 -12.789  0.1648E+02  0.2745E+02
 -12.779  0.2911E+02  0.2769E+02
 -12.769  0.2836E+02  0.2798E+02
 -12.759  0.1306E+02  0.2815E+02
 -12.749  0.1222E+02  0.2827E+02
 -12.739  0.1137E+02  0.2839E+02
 -12.729  0.1052E+02  0.2850E+02
 -12.719  0.9679E+01  0.2860E+02
 -12.709  0.8833E+01  0.2869E+02
 -12.699  0.7988E+01  0.2878E+02
 -12.689  0.7211E+01  0.2885E+02
 -12.679  0.6908E+01  0.2893E+02
 -12.669  0.6606E+01  0.2899E+02
 -12.659  0.6303E+01  0.2906E+02
 -12.649  0.6035E+01  0.2912E+02
 -12.639  0.6217E+01  0.2918E+02
 -12.629  0.7740E+01  0.2925E+02
 -12.619  0.9473E+01  0.2934E+02
 -12.609  0.1121E+02  0.2944E+02
 -12.599  0.1294E+02  0.2956E+02
 -12.589  0.1467E+02  0.2970E+02
 -12.579  0.1641E+02  0.2985E+02
 -12.569  0.8111E+01  0.3000E+02
 -12.559  0.8321E+01  0.3008E+02
 -12.549  0.8532E+01  0.3016E+02
 -12.539  0.8743E+01  0.3025E+02
 -12.529  0.8890E+01  0.3034E+02
 -12.519  0.9491E+01  0.3043E+02
 -12.509  0.9605E+01  0.3052E+02
 -12.499  0.9240E+01  0.3062E+02
 -12.489  0.8876E+01  0.3071E+02
 -12.479  0.8512E+01  0.3080E+02
 -12.469  0.8147E+01  0.3088E+02
 -12.459  0.7783E+01  0.3096E+02
 -12.449  0.7418E+01  0.3104E+02
 -12.439  0.7054E+01  0.3111E+02
 -12.429  0.6826E+01  0.3118E+02
 -12.419  0.6821E+01  0.3124E+02
 -12.409  0.6808E+01  0.3131E+02
 -12.399  0.6794E+01  0.3138E+02
 -12.389  0.6781E+01  0.3145E+02
 -12.379  0.6767E+01  0.3152E+02
 -12.369  0.6754E+01  0.3158E+02
 -12.359  0.6740E+01  0.3165E+02
 -12.349  0.9460E+01  0.3175E+02
 -12.339  0.7704E+01  0.3183E+02
 -12.329  0.5948E+01  0.3190E+02
 -12.319  0.4192E+01  0.3195E+02
 -12.309  0.2436E+01  0.3198E+02
 -12.299  0.6799E+00  0.3200E+02
 -12.289  0.0000E+00  0.3200E+02
 -12.279  0.0000E+00  0.3200E+02
 -12.269  0.0000E+00  0.3200E+02
 -12.259  0.0000E+00  0.3200E+02
 -12.249  0.0000E+00  0.3200E+02
 -12.239  0.0000E+00  0.3200E+02
 -12.229  0.0000E+00  0.3200E+02
 -12.219  0.0000E+00  0.3200E+02
 -12.209  0.0000E+00  0.3200E+02
 -12.199  0.0000E+00  0.3200E+02
 -12.189  0.0000E+00  0.3200E+02
 -12.179  0.0000E+00  0.3200E+02
 -12.169  0.0000E+00  0.3200E+02
 -12.159  0.0000E+00  0.3200E+02
 -12.149  0.0000E+00  0.3200E+02
 -12.139  0.0000E+00  0.3200E+02
 -12.129  0.0000E+00  0.3200E+02
 -12.119  0.0000E+00  0.3200E+02
 -12.109  0.0000E+00  0.3200E+02
 -12.099  0.0000E+00  0.3200E+02
 -12.089  0.0000E+00  0.3200E+02
 -12.079  0.0000E+00  0.3200E+02
 -12.069  0.0000E+00  0.3200E+02
 -12.059  0.0000E+00  0.3200E+02
 -12.049  0.0000E+00  0.3200E+02
 -12.039  0.0000E+00  0.3200E+02
 -12.029  0.0000E+00  0.3200E+02
 -12.019  0.0000E+00  0.3200E+02
 -12.009  0.0000E+00  0.3200E+02
 -11.999  0.1561E+01  0.3200E+02
 -11.989  0.4728E+01  0.3204E+02
 -11.979  0.7895E+01  0.3210E+02
 -11.969  0.5143E+01  0.3218E+02
 -11.959  0.5403E+01  0.3223E+02
 -11.949  0.5662E+01  0.3229E+02
 -11.939  0.5922E+01  0.3235E+02
 -11.929  0.6182E+01  0.3241E+02
 -11.919  0.6442E+01  0.3247E+02
 -11.909  0.6702E+01  0.3253E+02
 -11.899  0.6570E+01  0.3260E+02
 -11.889  0.6258E+01  0.3267E+02
 -11.879  0.5946E+01  0.3273E+02
 -11.869  0.5816E+01  0.3279E+02
 -11.859  0.5936E+01  0.3284E+02
 -11.849  0.6056E+01  0.3290E+02
 -11.839  0.6175E+01  0.3297E+02
 -11.829  0.6295E+01  0.3303E+02
 -11.819  0.6414E+01  0.3309E+02
 -11.809  0.6534E+01  0.3316E+02
 -11.799  0.6654E+01  0.3322E+02
 -11.789  0.6773E+01  0.3329E+02
 -11.779  0.6893E+01  0.3336E+02
 -11.769  0.1354E+02  0.3348E+02
 -11.759  0.1133E+02  0.3360E+02
 -11.749  0.9117E+01  0.3370E+02
 -11.739  0.6906E+01  0.3378E+02
 -11.729  0.4695E+01  0.3384E+02
 -11.719  0.2800E+01  0.3388E+02
 -11.709  0.2482E+01  0.3390E+02
 -11.699  0.2221E+01  0.3393E+02
 -11.689  0.2401E+01  0.3395E+02
 -11.679  0.2580E+01  0.3397E+02
 -11.669  0.2760E+01  0.3400E+02
 -11.659  0.2939E+01  0.3403E+02
 -11.649  0.3119E+01  0.3406E+02
 -11.639  0.3298E+01  0.3409E+02
 -11.629  0.3536E+01  0.3413E+02
 -11.619  0.4033E+01  0.3416E+02
 -11.609  0.7466E+01  0.3421E+02
 -11.599  0.1431E+02  0.3432E+02
 -11.589  0.2125E+02  0.3450E+02
 -11.579  0.4710E+01  0.3470E+02
 -11.569  0.4771E+01  0.3474E+02
 -11.559  0.4833E+01  0.3479E+02
 -11.549  0.4894E+01  0.3484E+02
 -11.539  0.4956E+01  0.3489E+02
 -11.529  0.5017E+01  0.3494E+02
 -11.519  0.5079E+01  0.3499E+02
 -11.509  0.5140E+01  0.3504E+02
 -11.499  0.5202E+01  0.3509E+02
 -11.489  0.5263E+01  0.3515E+02
 -11.479  0.5334E+01  0.3520E+02
 -11.469  0.5410E+01  0.3525E+02
 -11.459  0.5486E+01  0.3531E+02
 -11.449  0.5562E+01  0.3536E+02
 -11.439  0.5638E+01  0.3542E+02
 -11.429  0.5713E+01  0.3547E+02
 -11.419  0.5789E+01  0.3553E+02
 -11.409  0.5865E+01  0.3559E+02
 -11.399  0.5941E+01  0.3565E+02
 -11.389  0.6016E+01  0.3571E+02
 -11.379  0.8414E+01  0.3579E+02
 -11.369  0.8063E+01  0.3588E+02
 -11.359  0.7712E+01  0.3596E+02
 -11.349  0.7360E+01  0.3603E+02
 -11.339  0.7009E+01  0.3610E+02
 -11.329  0.6736E+01  0.3617E+02
 -11.319  0.6476E+01  0.3624E+02
 -11.309  0.6491E+01  0.3630E+02
 -11.299  0.6575E+01  0.3637E+02
 -11.289  0.6658E+01  0.3643E+02
 -11.279  0.6742E+01  0.3650E+02
 -11.269  0.6826E+01  0.3657E+02
 -11.259  0.6909E+01  0.3664E+02
 -11.249  0.6993E+01  0.3671E+02
 -11.239  0.7077E+01  0.3678E+02
 -11.229  0.7160E+01  0.3685E+02
 -11.219  0.7244E+01  0.3692E+02
 -11.209  0.7327E+01  0.3699E+02
 -11.199  0.5954E+01  0.3706E+02
 -11.189  0.5993E+01  0.3712E+02
 -11.179  0.6032E+01  0.3718E+02
 -11.169  0.6072E+01  0.3724E+02
 -11.159  0.6111E+01  0.3730E+02
 -11.149  0.6150E+01  0.3736E+02
 -11.139  0.6115E+01  0.3742E+02
 -11.129  0.5930E+01  0.3748E+02
 -11.119  0.5896E+01  0.3754E+02
 -11.109  0.5917E+01  0.3760E+02
 -11.099  0.6025E+01  0.3766E+02
 -11.089  0.6035E+01  0.3772E+02
 -11.079  0.6045E+01  0.3778E+02
 -11.069  0.6055E+01  0.3784E+02
 -11.059  0.6065E+01  0.3790E+02
 -11.049  0.6075E+01  0.3796E+02
 -11.039  0.6084E+01  0.3802E+02
 -11.029  0.6094E+01  0.3809E+02
 -11.019  0.7398E+01  0.3815E+02
 -11.009  0.1084E+02  0.3826E+02
 -10.999  0.1034E+02  0.3836E+02
 -10.989  0.9828E+01  0.3846E+02
 -10.979  0.9320E+01  0.3856E+02
 -10.969  0.8813E+01  0.3865E+02
 -10.959  0.8305E+01  0.3873E+02
 -10.949  0.7798E+01  0.3881E+02
 -10.939  0.7290E+01  0.3889E+02
 -10.929  0.6783E+01  0.3896E+02
 -10.919  0.6275E+01  0.3903E+02
 -10.909  0.5768E+01  0.3909E+02
 -10.899  0.5260E+01  0.3914E+02
 -10.889  0.4768E+01  0.3919E+02
 -10.879  0.4432E+01  0.3924E+02
 -10.869  0.4317E+01  0.3928E+02
 -10.859  0.4325E+01  0.3932E+02
 -10.849  0.4387E+01  0.3937E+02
 -10.839  0.4477E+01  0.3941E+02
 -10.829  0.1118E+02  0.3949E+02
 -10.819  0.9559E+01  0.3959E+02
 -10.809  0.7941E+01  0.3968E+02
 -10.799  0.6324E+01  0.3975E+02
 -10.789  0.4707E+01  0.3980E+02
 -10.779  0.3470E+01  0.3984E+02
 -10.769  0.4070E+01  0.3988E+02
 -10.759  0.4809E+01  0.3993E+02
 -10.749  0.5548E+01  0.3998E+02
 -10.739  0.6287E+01  0.4004E+02
 -10.729  0.7025E+01  0.4010E+02
 -10.719  0.7764E+01  0.4018E+02
 -10.709  0.8503E+01  0.4026E+02
 -10.699  0.9242E+01  0.4035E+02
 -10.689  0.9980E+01  0.4044E+02
 -10.679  0.1072E+02  0.4055E+02
 -10.669  0.5498E+01  0.4064E+02
 -10.659  0.5542E+01  0.4069E+02
 -10.649  0.5586E+01  0.4075E+02
 -10.639  0.5630E+01  0.4080E+02
 -10.629  0.5675E+01  0.4086E+02
 -10.619  0.5719E+01  0.4092E+02
 -10.609  0.5763E+01  0.4097E+02
 -10.599  0.5807E+01  0.4103E+02
 -10.589  0.5851E+01  0.4109E+02
 -10.579  0.5895E+01  0.4115E+02
 -10.569  0.5939E+01  0.4121E+02
 -10.559  0.5983E+01  0.4127E+02
 -10.549  0.6027E+01  0.4133E+02
 -10.539  0.6072E+01  0.4139E+02
 -10.529  0.6116E+01  0.4145E+02
 -10.519  0.6160E+01  0.4151E+02
 -10.509  0.7116E+01  0.4157E+02
 -10.499  0.1914E+02  0.4171E+02
 -10.489  0.3120E+02  0.4196E+02
 -10.479  0.6969E+01  0.4212E+02
 -10.469  0.6994E+01  0.4219E+02
 -10.459  0.7018E+01  0.4226E+02
 -10.449  0.7043E+01  0.4233E+02
 -10.439  0.7067E+01  0.4240E+02
 -10.429  0.7092E+01  0.4247E+02
 -10.419  0.7122E+01  0.4254E+02
 -10.409  0.7216E+01  0.4261E+02
 -10.399  0.7310E+01  0.4268E+02
 -10.389  0.7403E+01  0.4276E+02
 -10.379  0.7497E+01  0.4283E+02
 -10.369  0.7591E+01  0.4291E+02
 -10.359  0.7685E+01  0.4298E+02
 -10.349  0.7778E+01  0.4306E+02
 -10.339  0.7872E+01  0.4314E+02
 -10.329  0.7966E+01  0.4322E+02
 -10.319  0.8006E+01  0.4330E+02
 -10.309  0.8038E+01  0.4338E+02
 -10.299  0.8187E+01  0.4346E+02
 -10.289  0.8350E+01  0.4354E+02
 -10.279  0.8514E+01  0.4363E+02
 -10.269  0.8677E+01  0.4371E+02
 -10.259  0.8840E+01  0.4380E+02
 -10.249  0.9004E+01  0.4389E+02
 -10.239  0.9167E+01  0.4398E+02
 -10.229  0.9330E+01  0.4407E+02
 -10.219  0.9494E+01  0.4417E+02
 -10.209  0.9657E+01  0.4426E+02
 -10.199  0.9821E+01  0.4436E+02
 -10.189  0.1001E+02  0.4446E+02
 -10.179  0.1073E+02  0.4456E+02
 -10.169  0.1145E+02  0.4467E+02
 -10.159  0.1217E+02  0.4479E+02
 -10.149  0.1290E+02  0.4492E+02
 -10.139  0.1735E+02  0.4514E+02
 -10.129  0.8151E+01  0.4526E+02
 -10.119  0.8880E+01  0.4534E+02
 -10.109  0.1052E+02  0.4544E+02
 -10.099  0.1276E+02  0.4555E+02
 -10.089  0.1500E+02  0.4569E+02
 -10.079  0.8351E+01  0.4578E+02
 -10.069  0.9208E+01  0.4587E+02
 -10.059  0.1007E+02  0.4596E+02
 -10.049  0.1262E+02  0.4607E+02
 -10.039  0.1184E+02  0.4619E+02
 -10.029  0.1122E+02  0.4631E+02
 -10.019  0.1067E+02  0.4642E+02
 -10.009  0.1011E+02  0.4652E+02
  -9.999  0.9554E+01  0.4662E+02
  -9.989  0.8998E+01  0.4671E+02
  -9.979  0.8441E+01  0.4680E+02
  -9.969  0.7885E+01  0.4688E+02
  -9.959  0.7329E+01  0.4696E+02
  -9.949  0.7591E+01  0.4703E+02
  -9.939  0.8910E+01  0.4711E+02
  -9.929  0.1045E+02  0.4721E+02
  -9.919  0.1257E+02  0.4732E+02
  -9.909  0.1556E+02  0.4746E+02
  -9.899  0.1855E+02  0.4763E+02
  -9.889  0.3834E+02  0.4788E+02
  -9.879  0.2223E+02  0.4818E+02
  -9.869  0.2275E+02  0.4840E+02
  -9.859  0.2326E+02  0.4863E+02
  -9.849  0.2377E+02  0.4887E+02
  -9.839  0.1952E+02  0.4910E+02
  -9.829  0.1953E+02  0.4929E+02
  -9.819  0.1954E+02  0.4949E+02
  -9.809  0.1955E+02  0.4968E+02
  -9.799  0.1956E+02  0.4988E+02
  -9.789  0.1666E+02  0.5007E+02
  -9.779  0.3353E+01  0.5017E+02
  -9.769  0.2457E+01  0.5020E+02
  -9.759  0.2891E+01  0.5022E+02
  -9.749  0.3325E+01  0.5025E+02
  -9.739  0.1867E+02  0.5042E+02
  -9.729  0.1891E+02  0.5060E+02
  -9.719  0.1915E+02  0.5079E+02
  -9.709  0.1835E+02  0.5099E+02
  -9.699  0.1571E+02  0.5116E+02
  -9.689  0.1322E+02  0.5130E+02
  -9.679  0.1258E+02  0.5143E+02
  -9.669  0.1194E+02  0.5155E+02
  -9.659  0.1155E+02  0.5167E+02
  -9.649  0.1123E+02  0.5178E+02
  -9.639  0.1113E+02  0.5189E+02
  -9.629  0.1107E+02  0.5201E+02
  -9.619  0.1102E+02  0.5212E+02
  -9.609  0.1097E+02  0.5223E+02
  -9.599  0.1163E+02  0.5234E+02
  -9.589  0.1265E+02  0.5246E+02
  -9.579  0.1366E+02  0.5259E+02
  -9.569  0.1471E+02  0.5273E+02
  -9.559  0.1725E+02  0.5289E+02
  -9.549  0.1994E+02  0.5308E+02
  -9.539  0.2263E+02  0.5329E+02
  -9.529  0.2533E+02  0.5353E+02
  -9.519  0.2025E+02  0.5377E+02
  -9.509  0.2063E+02  0.5397E+02
  -9.499  0.2101E+02  0.5418E+02
  -9.489  0.1890E+02  0.5439E+02
  -9.479  0.1759E+02  0.5457E+02
  -9.469  0.1628E+02  0.5474E+02
  -9.459  0.1511E+02  0.5490E+02
  -9.449  0.1454E+02  0.5505E+02
  -9.439  0.1295E+02  0.5519E+02
  -9.429  0.1065E+02  0.5531E+02
  -9.419  0.9886E+01  0.5541E+02
  -9.409  0.9410E+01  0.5550E+02
  -9.399  0.8934E+01  0.5560E+02
  -9.389  0.8459E+01  0.5568E+02
  -9.379  0.8672E+01  0.5577E+02
  -9.369  0.9058E+01  0.5586E+02
  -9.359  0.9443E+01  0.5595E+02
  -9.349  0.9828E+01  0.5605E+02
  -9.339  0.1039E+02  0.5615E+02
  -9.329  0.1175E+02  0.5626E+02
  -9.319  0.1311E+02  0.5638E+02
  -9.309  0.1447E+02  0.5652E+02
  -9.299  0.1583E+02  0.5667E+02
  -9.289  0.6267E+02  0.5690E+02
  -9.279  0.4844E+02  0.5745E+02
  -9.269  0.3497E+02  0.5787E+02
  -9.259  0.2697E+02  0.5818E+02
  -9.249  0.1965E+02  0.5842E+02
  -9.239  0.1233E+02  0.5858E+02
  -9.229  0.8717E+01  0.5867E+02
  -9.219  0.8621E+01  0.5876E+02
  -9.209  0.8524E+01  0.5885E+02
  -9.199  0.8428E+01  0.5893E+02
  -9.189  0.8745E+01  0.5901E+02
  -9.179  0.9732E+01  0.5911E+02
  -9.169  0.1072E+02  0.5921E+02
  -9.159  0.1170E+02  0.5932E+02
  -9.149  0.1269E+02  0.5944E+02
  -9.139  0.1368E+02  0.5958E+02
  -9.129  0.1466E+02  0.5972E+02
  -9.119  0.1441E+02  0.5986E+02
  -9.109  0.1398E+02  0.6001E+02
  -9.099  0.1355E+02  0.6014E+02
  -9.089  0.1312E+02  0.6028E+02
  -9.079  0.1269E+02  0.6041E+02
  -9.069  0.1226E+02  0.6053E+02
  -9.059  0.1182E+02  0.6065E+02
  -9.049  0.3062E+02  0.6077E+02
  -9.039  0.2352E+02  0.6113E+02
  -9.029  0.6452E+01  0.6125E+02
  -9.019  0.6537E+01  0.6132E+02
  -9.009  0.6622E+01  0.6138E+02
  -8.999  0.6707E+01  0.6145E+02
  -8.989  0.6792E+01  0.6152E+02
  -8.979  0.6877E+01  0.6159E+02
  -8.969  0.6963E+01  0.6166E+02
  -8.959  0.7048E+01  0.6173E+02
  -8.949  0.7133E+01  0.6180E+02
  -8.939  0.7218E+01  0.6187E+02
  -8.929  0.1250E+02  0.6198E+02
  -8.919  0.1206E+02  0.6210E+02
  -8.909  0.1162E+02  0.6222E+02
  -8.899  0.1118E+02  0.6233E+02
  -8.889  0.1074E+02  0.6244E+02
  -8.879  0.1030E+02  0.6255E+02
  -8.869  0.9857E+01  0.6265E+02
  -8.859  0.9416E+01  0.6274E+02
  -8.849  0.1415E+02  0.6284E+02
  -8.839  0.1324E+02  0.6298E+02
  -8.829  0.1233E+02  0.6311E+02
  -8.819  0.1142E+02  0.6323E+02
  -8.809  0.1052E+02  0.6333E+02
  -8.799  0.9607E+01  0.6344E+02
  -8.789  0.8698E+01  0.6353E+02
  -8.779  0.7790E+01  0.6361E+02
  -8.769  0.6881E+01  0.6368E+02
  -8.759  0.5972E+01  0.6375E+02
  -8.749  0.5064E+01  0.6380E+02
  -8.739  0.4155E+01  0.6385E+02
  -8.729  0.3382E+01  0.6389E+02
  -8.719  0.2644E+01  0.6392E+02
  -8.709  0.1960E+01  0.6394E+02
  -8.699  0.3062E+01  0.6396E+02
  -8.689  0.4919E+01  0.6400E+02
  -8.679  0.6850E+01  0.6406E+02
  -8.669  0.8834E+01  0.6414E+02
  -8.659  0.1097E+02  0.6424E+02
  -8.649  0.1319E+02  0.6436E+02
  -8.639  0.8784E+01  0.6445E+02
  -8.629  0.8249E+01  0.6454E+02
  -8.619  0.7803E+01  0.6462E+02
  -8.609  0.7358E+01  0.6469E+02
  -8.599  0.6912E+01  0.6476E+02
  -8.589  0.7065E+01  0.6483E+02
  -8.579  0.7509E+01  0.6490E+02
  -8.569  0.7953E+01  0.6498E+02
  -8.559  0.8397E+01  0.6506E+02
  -8.549  0.8841E+01  0.6515E+02
  -8.539  0.9285E+01  0.6524E+02
  -8.529  0.9729E+01  0.6534E+02
  -8.519  0.1017E+02  0.6544E+02
  -8.509  0.1062E+02  0.6554E+02
  -8.499  0.1106E+02  0.6565E+02
  -8.489  0.1150E+02  0.6576E+02
  -8.479  0.1216E+02  0.6588E+02
  -8.469  0.1298E+02  0.6600E+02
  -8.459  0.1379E+02  0.6614E+02
  -8.449  0.1461E+02  0.6628E+02
  -8.439  0.1543E+02  0.6643E+02
  -8.429  0.1625E+02  0.6659E+02
  -8.419  0.1707E+02  0.6675E+02
  -8.409  0.1789E+02  0.6693E+02
  -8.399  0.1871E+02  0.6711E+02
  -8.389  0.1953E+02  0.6730E+02
  -8.379  0.1535E+02  0.6749E+02
  -8.369  0.1532E+02  0.6765E+02
  -8.359  0.1916E+02  0.6780E+02
  -8.349  0.1589E+02  0.6798E+02
  -8.339  0.1493E+02  0.6813E+02
  -8.329  0.1398E+02  0.6827E+02
  -8.319  0.1302E+02  0.6841E+02
  -8.309  0.1207E+02  0.6854E+02
  -8.299  0.1115E+02  0.6865E+02
  -8.289  0.1519E+02  0.6877E+02
  -8.279  0.3077E+02  0.6899E+02
  -8.269  0.1144E+02  0.6915E+02
  -8.259  0.1135E+02  0.6927E+02
  -8.249  0.1130E+02  0.6938E+02
  -8.239  0.1125E+02  0.6949E+02
  -8.229  0.1121E+02  0.6961E+02
  -8.219  0.1116E+02  0.6972E+02
  -8.209  0.1187E+02  0.6983E+02
  -8.199  0.1259E+02  0.6996E+02
  -8.189  0.1332E+02  0.7008E+02
  -8.179  0.1404E+02  0.7022E+02
  -8.169  0.1098E+02  0.7035E+02
  -8.159  0.1134E+02  0.7046E+02
  -8.149  0.1169E+02  0.7057E+02
  -8.139  0.1205E+02  0.7069E+02
  -8.129  0.1241E+02  0.7081E+02
  -8.119  0.1277E+02  0.7094E+02
  -8.109  0.1312E+02  0.7107E+02
  -8.099  0.1348E+02  0.7120E+02
  -8.089  0.1384E+02  0.7134E+02
  -8.079  0.1465E+02  0.7148E+02
  -8.069  0.1553E+02  0.7163E+02
  -8.059  0.1640E+02  0.7179E+02
  -8.049  0.1722E+02  0.7196E+02
  -8.039  0.1801E+02  0.7214E+02
  -8.029  0.1881E+02  0.7232E+02
  -8.019  0.1960E+02  0.7251E+02
  -8.009  0.2010E+02  0.7271E+02
  -7.999  0.1806E+02  0.7290E+02
  -7.989  0.1601E+02  0.7307E+02
  -7.979  0.3418E+02  0.7340E+02
  -7.969  0.2751E+02  0.7371E+02
  -7.959  0.2084E+02  0.7395E+02
  -7.949  0.1463E+02  0.7412E+02
  -7.939  0.9148E+01  0.7424E+02
  -7.929  0.8275E+01  0.7433E+02
  -7.919  0.7565E+01  0.7441E+02
  -7.909  0.6854E+01  0.7448E+02
  -7.899  0.6144E+01  0.7455E+02
  -7.889  0.5433E+01  0.7460E+02
  -7.879  0.4775E+01  0.7465E+02
  -7.869  0.4397E+01  0.7470E+02
  -7.859  0.1306E+02  0.7474E+02
  -7.849  0.1228E+02  0.7487E+02
  -7.839  0.1149E+02  0.7499E+02
  -7.829  0.1071E+02  0.7510E+02
  -7.819  0.9922E+01  0.7520E+02
  -7.809  0.9321E+01  0.7530E+02
  -7.799  0.8900E+01  0.7539E+02
  -7.789  0.8479E+01  0.7548E+02
  -7.779  0.8057E+01  0.7556E+02
  -7.769  0.7636E+01  0.7564E+02
  -7.759  0.7215E+01  0.7571E+02
  -7.749  0.6794E+01  0.7578E+02
  -7.739  0.6567E+01  0.7585E+02
  -7.729  0.6641E+01  0.7591E+02
  -7.719  0.6714E+01  0.7598E+02
  -7.709  0.6788E+01  0.7605E+02
  -7.699  0.6861E+01  0.7612E+02
  -7.689  0.6935E+01  0.7618E+02
  -7.679  0.7008E+01  0.7625E+02
  -7.669  0.7082E+01  0.7632E+02
  -7.659  0.7155E+01  0.7640E+02
  -7.649  0.7922E+01  0.7647E+02
  -7.639  0.1102E+02  0.7656E+02
  -7.629  0.1637E+02  0.7669E+02
  -7.619  0.2888E+02  0.7692E+02
  -7.609  0.4140E+02  0.7727E+02
  -7.599  0.3581E+02  0.7774E+02
  -7.589  0.9945E+01  0.7790E+02
  -7.579  0.1004E+02  0.7800E+02
  -7.569  0.1014E+02  0.7810E+02
  -7.559  0.1024E+02  0.7820E+02
  -7.549  0.1034E+02  0.7830E+02
  -7.539  0.1044E+02  0.7841E+02
  -7.529  0.9927E+01  0.7851E+02
  -7.519  0.1002E+02  0.7861E+02
  -7.509  0.1012E+02  0.7871E+02
  -7.499  0.1022E+02  0.7881E+02
  -7.489  0.1032E+02  0.7892E+02
  -7.479  0.1042E+02  0.7902E+02
  -7.469  0.1051E+02  0.7913E+02
  -7.459  0.1061E+02  0.7923E+02
  -7.449  0.1071E+02  0.7934E+02
  -7.439  0.1081E+02  0.7945E+02
  -7.429  0.1091E+02  0.7955E+02
  -7.419  0.3956E+02  0.7973E+02
  -7.409  0.3335E+02  0.8010E+02
  -7.399  0.2713E+02  0.8040E+02
  -7.389  0.2274E+02  0.8065E+02
  -7.379  0.1925E+02  0.8086E+02
  -7.369  0.1576E+02  0.8103E+02
  -7.359  0.1228E+02  0.8117E+02
  -7.349  0.1025E+02  0.8128E+02
  -7.339  0.9684E+01  0.8138E+02
  -7.329  0.9213E+01  0.8148E+02
  -7.319  0.8743E+01  0.8157E+02
  -7.309  0.8272E+01  0.8165E+02
  -7.299  0.7801E+01  0.8173E+02
  -7.289  0.7703E+01  0.8181E+02
  -7.279  0.7906E+01  0.8189E+02
  -7.269  0.8678E+01  0.8197E+02
  -7.259  0.9122E+01  0.8206E+02
  -7.249  0.9566E+01  0.8215E+02
  -7.239  0.1033E+02  0.8225E+02
  -7.229  0.1077E+02  0.8236E+02
  -7.219  0.1097E+02  0.8247E+02
  -7.209  0.1105E+02  0.8258E+02
  -7.199  0.1113E+02  0.8269E+02
  -7.189  0.1121E+02  0.8280E+02
  -7.179  0.1129E+02  0.8291E+02
  -7.169  0.1137E+02  0.8303E+02
  -7.159  0.1145E+02  0.8314E+02
  -7.149  0.1153E+02  0.8325E+02
  -7.139  0.1161E+02  0.8337E+02
  -7.129  0.1169E+02  0.8349E+02
  -7.119  0.1177E+02  0.8360E+02
  -7.109  0.1185E+02  0.8372E+02
  -7.099  0.1193E+02  0.8384E+02
  -7.089  0.1201E+02  0.8396E+02
  -7.079  0.1209E+02  0.8408E+02
  -7.069  0.1217E+02  0.8420E+02
  -7.059  0.1225E+02  0.8432E+02
  -7.049  0.1233E+02  0.8445E+02
  -7.039  0.1241E+02  0.8457E+02
  -7.029  0.1249E+02  0.8470E+02
  -7.019  0.1453E+02  0.8483E+02
  -7.009  0.2399E+02  0.8513E+02
  -6.999  0.1405E+02  0.8531E+02
  -6.989  0.1901E+02  0.8547E+02
  -6.979  0.2462E+02  0.8569E+02
  -6.969  0.1389E+02  0.8586E+02
  -6.959  0.1304E+02  0.8599E+02
  -6.949  0.1219E+02  0.8612E+02
  -6.939  0.1134E+02  0.8624E+02
  -6.929  0.1050E+02  0.8634E+02
  -6.919  0.9646E+01  0.8645E+02
  -6.909  0.8927E+01  0.8654E+02
  -6.899  0.8493E+01  0.8663E+02
  -6.889  0.1039E+02  0.8670E+02
  -6.879  0.9603E+01  0.8680E+02
  -6.869  0.8819E+01  0.8690E+02
  -6.859  0.8036E+01  0.8698E+02
  -6.849  0.1751E+03  0.8729E+02
  -6.839  0.1240E+02  0.8750E+02
  -6.829  0.1653E+02  0.8764E+02
  -6.819  0.2066E+02  0.8783E+02
  -6.809  0.1034E+02  0.8804E+02
  -6.799  0.9495E+01  0.8814E+02
  -6.789  0.8650E+01  0.8823E+02
  -6.779  0.7805E+01  0.8831E+02
  -6.769  0.6959E+01  0.8839E+02
  -6.759  0.6114E+01  0.8845E+02
  -6.749  0.5268E+01  0.8851E+02
  -6.739  0.4423E+01  0.8856E+02
  -6.729  0.3578E+01  0.8860E+02
  -6.719  0.2882E+01  0.8863E+02
  -6.709  0.2619E+01  0.8865E+02
  -6.699  0.3046E+01  0.8868E+02
  -6.689  0.3628E+01  0.8872E+02
  -6.679  0.4652E+01  0.8876E+02
  -6.669  0.6305E+01  0.8881E+02
  -6.659  0.8768E+01  0.8889E+02
  -6.649  0.1135E+02  0.8899E+02
  -6.639  0.1393E+02  0.8911E+02
  -6.629  0.1652E+02  0.8927E+02
  -6.619  0.1910E+02  0.8944E+02
  -6.609  0.1070E+02  0.8956E+02
  -6.599  0.1054E+02  0.8967E+02
  -6.589  0.1039E+02  0.8977E+02
  -6.579  0.1024E+02  0.8988E+02
  -6.569  0.1009E+02  0.8998E+02
  -6.559  0.9932E+01  0.9008E+02
  -6.549  0.9780E+01  0.9018E+02
  -6.539  0.1293E+02  0.9028E+02
  -6.529  0.1903E+02  0.9044E+02
  -6.519  0.2516E+02  0.9066E+02
  -6.509  0.8950E+01  0.9077E+02
  -6.499  0.9097E+01  0.9086E+02
  -6.489  0.9262E+01  0.9095E+02
  -6.479  0.9464E+01  0.9104E+02
  -6.469  0.9709E+01  0.9114E+02
  -6.459  0.9956E+01  0.9124E+02
  -6.449  0.1020E+02  0.9134E+02
  -6.439  0.1045E+02  0.9144E+02
  -6.429  0.1070E+02  0.9155E+02
  -6.419  0.1094E+02  0.9166E+02
  -6.409  0.1119E+02  0.9177E+02
  -6.399  0.1144E+02  0.9188E+02
  -6.389  0.1169E+02  0.9200E+02
  -6.379  0.1221E+02  0.9211E+02
  -6.369  0.1322E+02  0.9224E+02
  -6.359  0.1423E+02  0.9238E+02
  -6.349  0.1524E+02  0.9253E+02
  -6.339  0.1625E+02  0.9268E+02
  -6.329  0.1726E+02  0.9285E+02
  -6.319  0.5572E+02  0.9307E+02
  -6.309  0.3434E+02  0.9352E+02
  -6.299  0.1393E+02  0.9376E+02
  -6.289  0.9090E+01  0.9386E+02
  -6.279  0.1328E+02  0.9397E+02
  -6.269  0.1778E+02  0.9413E+02
  -6.259  0.2233E+02  0.9433E+02
  -6.249  0.2689E+02  0.9458E+02
  -6.239  0.1107E+02  0.9469E+02
  -6.229  0.1133E+02  0.9481E+02
  -6.219  0.1160E+02  0.9492E+02
  -6.209  0.1186E+02  0.9504E+02
  -6.199  0.1212E+02  0.9516E+02
  -6.189  0.1277E+02  0.9528E+02
  -6.179  0.1302E+02  0.9541E+02
  -6.169  0.1326E+02  0.9554E+02
  -6.159  0.1396E+02  0.9568E+02
  -6.149  0.1420E+02  0.9582E+02
  -6.139  0.1469E+02  0.9597E+02
  -6.129  0.1538E+02  0.9612E+02
  -6.119  0.1636E+02  0.9627E+02
  -6.109  0.1705E+02  0.9644E+02
  -6.099  0.1732E+02  0.9661E+02
  -6.089  0.1800E+02  0.9679E+02
  -6.079  0.1832E+02  0.9697E+02
  -6.069  0.1850E+02  0.9716E+02
  -6.059  0.1893E+02  0.9734E+02
  -6.049  0.1991E+02  0.9754E+02
  -6.039  0.2090E+02  0.9774E+02
  -6.029  0.2137E+02  0.9795E+02
  -6.019  0.2171E+02  0.9817E+02
  -6.009  0.2205E+02  0.9839E+02
  -5.999  0.2239E+02  0.9861E+02
  -5.989  0.2273E+02  0.9884E+02
  -5.979  0.2246E+02  0.9906E+02
  -5.969  0.2123E+02  0.9928E+02
  -5.959  0.2008E+02  0.9949E+02
  -5.949  0.1906E+02  0.9968E+02
  -5.939  0.1811E+02  0.9987E+02
  -5.929  0.1716E+02  0.1000E+03
  -5.919  0.1659E+02  0.1002E+03
  -5.909  0.4052E+02  0.1006E+03
  -5.899  0.1605E+02  0.1009E+03
  -5.889  0.1635E+02  0.1010E+03
  -5.879  0.1665E+02  0.1012E+03
  -5.869  0.1670E+02  0.1014E+03
  -5.859  0.1683E+02  0.1019E+03
  -5.849  0.1693E+02  0.1020E+03
  -5.839  0.1702E+02  0.1022E+03
  -5.829  0.1711E+02  0.1024E+03
  -5.819  0.1733E+02  0.1025E+03
  -5.809  0.1775E+02  0.1027E+03
  -5.799  0.1817E+02  0.1029E+03
  -5.789  0.1859E+02  0.1031E+03
  -5.779  0.1901E+02  0.1033E+03
  -5.769  0.1943E+02  0.1035E+03
  -5.759  0.1985E+02  0.1037E+03
  -5.749  0.2027E+02  0.1039E+03
  -5.739  0.2069E+02  0.1041E+03
  -5.729  0.1865E+02  0.1043E+03
  -5.719  0.1528E+02  0.1044E+03
  -5.709  0.1221E+02  0.1046E+03
  -5.699  0.9585E+01  0.1047E+03
  -5.689  0.1057E+02  0.1048E+03
  -5.679  0.1151E+02  0.1049E+03
  -5.669  0.1189E+02  0.1050E+03
  -5.659  0.1206E+02  0.1051E+03
  -5.649  0.1198E+02  0.1053E+03
  -5.639  0.1190E+02  0.1054E+03
  -5.629  0.1182E+02  0.1055E+03
  -5.619  0.1174E+02  0.1056E+03
  -5.609  0.1166E+02  0.1057E+03
  -5.599  0.1158E+02  0.1058E+03
  -5.589  0.1150E+02  0.1060E+03
  -5.579  0.1142E+02  0.1061E+03
  -5.569  0.8923E+01  0.1062E+03
  -5.559  0.8843E+01  0.1063E+03
  -5.549  0.8763E+01  0.1064E+03
  -5.539  0.8682E+01  0.1064E+03
  -5.529  0.8602E+01  0.1065E+03
  -5.519  0.8522E+01  0.1066E+03
  -5.509  0.8441E+01  0.1067E+03
  -5.499  0.8361E+01  0.1068E+03
  -5.489  0.8281E+01  0.1069E+03
  -5.479  0.8200E+01  0.1070E+03
  -5.469  0.8120E+01  0.1070E+03
  -5.459  0.8040E+01  0.1071E+03
  -5.449  0.7959E+01  0.1072E+03
  -5.439  0.7879E+01  0.1073E+03
  -5.429  0.7799E+01  0.1074E+03
  -5.419  0.7718E+01  0.1074E+03
  -5.409  0.7638E+01  0.1075E+03
  -5.399  0.2050E+02  0.1077E+03
  -5.389  0.8262E+01  0.1078E+03
  -5.379  0.5916E+01  0.1079E+03
  -5.369  0.5955E+01  0.1079E+03
  -5.359  0.6212E+01  0.1080E+03
  -5.349  0.6469E+01  0.1081E+03
  -5.339  0.6727E+01  0.1081E+03
  -5.329  0.6984E+01  0.1082E+03
  -5.319  0.7241E+01  0.1083E+03
  -5.309  0.7498E+01  0.1083E+03
  -5.299  0.7755E+01  0.1084E+03
  -5.289  0.8012E+01  0.1085E+03
  -5.279  0.8270E+01  0.1086E+03
  -5.269  0.1125E+02  0.1087E+03
  -5.259  0.2268E+02  0.1088E+03
  -5.249  0.3414E+02  0.1091E+03
  -5.239  0.4012E+02  0.1095E+03
  -5.229  0.4219E+02  0.1099E+03
  -5.219  0.4376E+02  0.1104E+03
  -5.209  0.3925E+02  0.1108E+03
  -5.199  0.3475E+02  0.1112E+03
  -5.189  0.3569E+02  0.1115E+03
  -5.179  0.5027E+02  0.1119E+03
  -5.169  0.5134E+02  0.1125E+03
  -5.159  0.4919E+02  0.1130E+03
  -5.149  0.3139E+02  0.1134E+03
  -5.139  0.3035E+02  0.1137E+03
  -5.129  0.2835E+02  0.1140E+03
  -5.119  0.2625E+02  0.1143E+03
  -5.109  0.2416E+02  0.1145E+03
  -5.099  0.2206E+02  0.1148E+03
  -5.089  0.2100E+02  0.1150E+03
  -5.079  0.2010E+02  0.1152E+03
  -5.069  0.1841E+02  0.1154E+03
  -5.059  0.1678E+02  0.1155E+03
  -5.049  0.1542E+02  0.1157E+03
  -5.039  0.1500E+02  0.1158E+03
  -5.029  0.1466E+02  0.1160E+03
  -5.019  0.1431E+02  0.1161E+03
  -5.009  0.1649E+02  0.1163E+03
  -4.999  0.1925E+02  0.1165E+03
  -4.989  0.2201E+02  0.1167E+03
  -4.979  0.2586E+02  0.1169E+03
  -4.969  0.3059E+02  0.1172E+03
  -4.959  0.3559E+02  0.1175E+03
  -4.949  0.2743E+02  0.1179E+03
  -4.939  0.5076E+02  0.1182E+03
  -4.929  0.4710E+02  0.1188E+03
  -4.919  0.4060E+02  0.1193E+03
  -4.909  0.3098E+02  0.1197E+03
  -4.899  0.1760E+02  0.1199E+03
  -4.889  0.4144E+02  0.1202E+03
  -4.879  0.2169E+02  0.1205E+03
  -4.869  0.1024E+02  0.1206E+03
  -4.859  0.1081E+02  0.1207E+03
  -4.849  0.1548E+02  0.1209E+03
  -4.839  0.2082E+02  0.1210E+03
  -4.829  0.2619E+02  0.1213E+03
  -4.819  0.3156E+02  0.1216E+03
  -4.809  0.3878E+02  0.1219E+03
  -4.799  0.3220E+02  0.1223E+03
  -4.789  0.2920E+02  0.1226E+03
  -4.779  0.3205E+02  0.1229E+03
  -4.769  0.3490E+02  0.1233E+03
  -4.759  0.1871E+02  0.1235E+03
  -4.749  0.1774E+02  0.1237E+03
  -4.739  0.1677E+02  0.1238E+03
  -4.729  0.1607E+02  0.1240E+03
  -4.719  0.1570E+02  0.1242E+03
  -4.709  0.1533E+02  0.1243E+03
  -4.699  0.1547E+02  0.1245E+03
  -4.689  0.2366E+02  0.1247E+03
  -4.679  0.2737E+02  0.1249E+03
  -4.669  0.4217E+02  0.1253E+03
  -4.659  0.3536E+02  0.1257E+03
  -4.649  0.2854E+02  0.1261E+03
  -4.639  0.2194E+02  0.1263E+03
  -4.629  0.1585E+02  0.1265E+03
  -4.619  0.2413E+02  0.1267E+03
  -4.609  0.5032E+02  0.1270E+03
  -4.599  0.4194E+02  0.1275E+03
  -4.589  0.2283E+02  0.1278E+03
  -4.579  0.2360E+02  0.1280E+03
  -4.569  0.2443E+02  0.1283E+03
  -4.559  0.2651E+02  0.1285E+03
  -4.549  0.2873E+02  0.1288E+03
  -4.539  0.3102E+02  0.1291E+03
  -4.529  0.3331E+02  0.1294E+03
  -4.519  0.3026E+02  0.1298E+03
  -4.509  0.2749E+02  0.1300E+03
  -4.499  0.3182E+02  0.1303E+03
  -4.489  0.3615E+02  0.1307E+03
  -4.479  0.6825E+02  0.1313E+03
  -4.469  0.3423E+02  0.1318E+03
  -4.459  0.1071E+02  0.1320E+03
  -4.449  0.1095E+02  0.1321E+03
  -4.439  0.1461E+02  0.1322E+03
  -4.429  0.1375E+02  0.1323E+03
  -4.419  0.1288E+02  0.1325E+03
  -4.409  0.1201E+02  0.1326E+03
  -4.399  0.1114E+02  0.1327E+03
  -4.389  0.1165E+02  0.1328E+03
  -4.379  0.1293E+02  0.1329E+03
  -4.369  0.1421E+02  0.1331E+03
  -4.359  0.1999E+02  0.1332E+03
  -4.349  0.2803E+02  0.1335E+03
  -4.339  0.3821E+02  0.1338E+03
  -4.329  0.4377E+02  0.1342E+03
  -4.319  0.4284E+02  0.1347E+03
  -4.309  0.3651E+02  0.1350E+03
  -4.299  0.3588E+02  0.1354E+03
  -4.289  0.3485E+02  0.1358E+03
  -4.279  0.3382E+02  0.1361E+03
  -4.269  0.3272E+02  0.1364E+03
  -4.259  0.2912E+02  0.1367E+03
  -4.249  0.1291E+02  0.1369E+03
  -4.239  0.1315E+02  0.1371E+03
  -4.229  0.2003E+02  0.1372E+03
  -4.219  0.2332E+02  0.1374E+03
  -4.209  0.2679E+02  0.1377E+03
  -4.199  0.2786E+02  0.1380E+03
  -4.189  0.2798E+02  0.1382E+03
  -4.179  0.2811E+02  0.1385E+03
  -4.169  0.2823E+02  0.1388E+03
  -4.159  0.2835E+02  0.1391E+03
  -4.149  0.2847E+02  0.1394E+03
  -4.139  0.2844E+02  0.1396E+03
  -4.129  0.2862E+02  0.1399E+03
  -4.119  0.8254E+02  0.1404E+03
  -4.109  0.1887E+02  0.1409E+03
  -4.099  0.1469E+02  0.1411E+03
  -4.089  0.1467E+02  0.1412E+03
  -4.079  0.1464E+02  0.1414E+03
  -4.069  0.1358E+02  0.1415E+03
  -4.059  0.1383E+02  0.1416E+03
  -4.049  0.1408E+02  0.1418E+03
  -4.039  0.1433E+02  0.1419E+03
  -4.029  0.1459E+02  0.1421E+03
  -4.019  0.1484E+02  0.1422E+03
  -4.009  0.1509E+02  0.1424E+03
  -3.999  0.1534E+02  0.1425E+03
  -3.989  0.1952E+02  0.1427E+03
  -3.979  0.1781E+02  0.1429E+03
  -3.969  0.1611E+02  0.1430E+03
  -3.959  0.2545E+02  0.1432E+03
  -3.949  0.2615E+02  0.1435E+03
  -3.939  0.3941E+02  0.1438E+03
  -3.929  0.3974E+02  0.1442E+03
  -3.919  0.3718E+02  0.1446E+03
  -3.909  0.3463E+02  0.1449E+03
  -3.899  0.3225E+02  0.1453E+03
  -3.889  0.3082E+02  0.1456E+03
  -3.879  0.2926E+02  0.1459E+03
  -3.869  0.2770E+02  0.1462E+03
  -3.859  0.2614E+02  0.1464E+03
  -3.849  0.2427E+02  0.1467E+03
  -3.839  0.2013E+02  0.1469E+03
  -3.829  0.1521E+02  0.1471E+03
  -3.819  0.1096E+02  0.1472E+03
  -3.809  0.5486E+01  0.1473E+03
  -3.799  0.7225E+01  0.1474E+03
  -3.789  0.9964E+01  0.1474E+03
  -3.779  0.1327E+02  0.1476E+03
  -3.769  0.1658E+02  0.1477E+03
  -3.759  0.1991E+02  0.1479E+03
  -3.749  0.2340E+02  0.1481E+03
  -3.739  0.3356E+02  0.1485E+03
  -3.729  0.2154E+02  0.1488E+03
  -3.719  0.1743E+02  0.1490E+03
  -3.709  0.1693E+02  0.1491E+03
  -3.699  0.2175E+02  0.1493E+03
  -3.689  0.4411E+02  0.1496E+03
  -3.679  0.1737E+02  0.1500E+03
  -3.669  0.1843E+02  0.1501E+03
  -3.659  0.1967E+02  0.1503E+03
  -3.649  0.2097E+02  0.1505E+03
  -3.639  0.2234E+02  0.1508E+03
  -3.629  0.1344E+02  0.1510E+03
  -3.619  0.1355E+02  0.1511E+03
  -3.609  0.1440E+02  0.1513E+03
  -3.599  0.1525E+02  0.1514E+03
  -3.589  0.1610E+02  0.1516E+03
  -3.579  0.1695E+02  0.1517E+03
  -3.569  0.1780E+02  0.1519E+03
  -3.559  0.1865E+02  0.1521E+03
  -3.549  0.1959E+02  0.1523E+03
  -3.539  0.2196E+02  0.1525E+03
  -3.529  0.2432E+02  0.1527E+03
  -3.519  0.2736E+02  0.1530E+03
  -3.509  0.3248E+02  0.1533E+03
  -3.499  0.3761E+02  0.1536E+03
  -3.489  0.2943E+02  0.1540E+03
  -3.479  0.3207E+02  0.1543E+03
  -3.469  0.2067E+02  0.1545E+03
  -3.459  0.2041E+02  0.1547E+03
  -3.449  0.2015E+02  0.1549E+03
  -3.439  0.1989E+02  0.1551E+03
  -3.429  0.1962E+02  0.1553E+03
  -3.419  0.1936E+02  0.1555E+03
  -3.409  0.1910E+02  0.1557E+03
  -3.399  0.1884E+02  0.1559E+03
  -3.389  0.1858E+02  0.1561E+03
  -3.379  0.1832E+02  0.1563E+03
  -3.369  0.1867E+02  0.1565E+03
  -3.359  0.2004E+02  0.1567E+03
  -3.349  0.2200E+02  0.1569E+03
  -3.339  0.2236E+02  0.1571E+03
  -3.329  0.2251E+02  0.1573E+03
  -3.319  0.2267E+02  0.1575E+03
  -3.309  0.2282E+02  0.1578E+03
  -3.299  0.2298E+02  0.1580E+03
  -3.289  0.2313E+02  0.1582E+03
  -3.279  0.2332E+02  0.1585E+03
  -3.269  0.2351E+02  0.1587E+03
  -3.259  0.2297E+02  0.1590E+03
  -3.249  0.2099E+02  0.1592E+03
  -3.239  0.1902E+02  0.1594E+03
  -3.229  0.1706E+02  0.1596E+03
  -3.219  0.1690E+02  0.1597E+03
  -3.209  0.1715E+02  0.1599E+03
  -3.199  0.1740E+02  0.1601E+03
  -3.189  0.1765E+02  0.1602E+03
  -3.179  0.1793E+02  0.1604E+03
  -3.169  0.1823E+02  0.1606E+03
  -3.159  0.1854E+02  0.1608E+03
  -3.149  0.1884E+02  0.1610E+03
  -3.139  0.1879E+02  0.1612E+03
  -3.129  0.1904E+02  0.1613E+03
  -3.119  0.1944E+02  0.1615E+03
  -3.109  0.1996E+02  0.1617E+03
  -3.099  0.2048E+02  0.1619E+03
  -3.089  0.2100E+02  0.1621E+03
  -3.079  0.2152E+02  0.1624E+03
  -3.069  0.2204E+02  0.1626E+03
  -3.059  0.2214E+02  0.1628E+03
  -3.049  0.2205E+02  0.1630E+03
  -3.039  0.2131E+02  0.1632E+03
  -3.029  0.2415E+02  0.1635E+03
  -3.019  0.3721E+02  0.1638E+03
  -3.009  0.1971E+02  0.1642E+03
  -2.999  0.1944E+02  0.1644E+03
  -2.989  0.1920E+02  0.1646E+03
  -2.979  0.1895E+02  0.1648E+03
  -2.969  0.1871E+02  0.1650E+03
  -2.959  0.1846E+02  0.1652E+03
  -2.949  0.2043E+02  0.1654E+03
  -2.939  0.2021E+02  0.1656E+03
  -2.929  0.2004E+02  0.1658E+03
  -2.919  0.1987E+02  0.1660E+03
  -2.909  0.2547E+02  0.1662E+03
  -2.899  0.2422E+02  0.1665E+03
  -2.889  0.2035E+02  0.1667E+03
  -2.879  0.1836E+02  0.1669E+03
  -2.869  0.1405E+02  0.1670E+03
  -2.859  0.1147E+02  0.1672E+03
  -2.849  0.1212E+02  0.1673E+03
  -2.839  0.1276E+02  0.1674E+03
  -2.829  0.1290E+02  0.1675E+03
  -2.819  0.1264E+02  0.1677E+03
  -2.809  0.1237E+02  0.1678E+03
  -2.799  0.1356E+02  0.1679E+03
  -2.789  0.3764E+02  0.1683E+03
  -2.779  0.1445E+02  0.1685E+03
  -2.769  0.1734E+02  0.1687E+03
  -2.759  0.2012E+02  0.1689E+03
  -2.749  0.2706E+02  0.1691E+03
  -2.739  0.2745E+02  0.1694E+03
  -2.729  0.2783E+02  0.1697E+03
  -2.719  0.2821E+02  0.1700E+03
  -2.709  0.7839E+02  0.1704E+03
  -2.699  0.4129E+02  0.1710E+03
  -2.689  0.3739E+02  0.1714E+03
  -2.679  0.4188E+02  0.1717E+03
  -2.669  0.4980E+02  0.1722E+03
  -2.659  0.6696E+02  0.1728E+03
  -2.649  0.7152E+02  0.1735E+03
  -2.639  0.6169E+02  0.1742E+03
  -2.629  0.4116E+02  0.1748E+03
  -2.619  0.3949E+02  0.1753E+03
  -2.609  0.1997E+02  0.1755E+03
  -2.599  0.1789E+02  0.1757E+03
  -2.589  0.2068E+02  0.1759E+03
  -2.579  0.1955E+02  0.1761E+03
  -2.569  0.1843E+02  0.1763E+03
  -2.559  0.4215E+02  0.1766E+03
  -2.549  0.1011E+02  0.1768E+03
  -2.539  0.2734E+02  0.1769E+03
  -2.529  0.2143E+02  0.1774E+03
  -2.519  0.1938E+02  0.1776E+03
  -2.509  0.2973E+02  0.1778E+03
  -2.499  0.2764E+02  0.1781E+03
  -2.489  0.2550E+02  0.1783E+03
  -2.479  0.2336E+02  0.1786E+03
  -2.469  0.2166E+02  0.1788E+03
  -2.459  0.1997E+02  0.1790E+03
  -2.449  0.1829E+02  0.1792E+03
  -2.439  0.1674E+02  0.1794E+03
  -2.429  0.1697E+02  0.1795E+03
  -2.419  0.1703E+02  0.1797E+03
  -2.409  0.1827E+02  0.1799E+03
  -2.399  0.1874E+02  0.1801E+03
  -2.389  0.3097E+02  0.1803E+03
  -2.379  0.8812E+02  0.1808E+03
  -2.369  0.2213E+02  0.1811E+03
  -2.359  0.1944E+02  0.1813E+03
  -2.349  0.4845E+02  0.1816E+03
  -2.339  0.2952E+02  0.1821E+03
  -2.329  0.2020E+02  0.1823E+03
  -2.319  0.1781E+02  0.1825E+03
  -2.309  0.1869E+02  0.1827E+03
  -2.299  0.1815E+02  0.1829E+03
  -2.289  0.1569E+02  0.1830E+03
  -2.279  0.1530E+02  0.1832E+03
  -2.269  0.1517E+02  0.1833E+03
  -2.259  0.1390E+02  0.1835E+03
  -2.249  0.1363E+02  0.1836E+03
  -2.239  0.1416E+02  0.1838E+03
  -2.229  0.1470E+02  0.1839E+03
  -2.219  0.1523E+02  0.1841E+03
  -2.209  0.1576E+02  0.1842E+03
  -2.199  0.1629E+02  0.1844E+03
  -2.189  0.1683E+02  0.1845E+03
  -2.179  0.3630E+02  0.1848E+03
  -2.169  0.1093E+02  0.1854E+03
  -2.159  0.1753E+02  0.1855E+03
  -2.149  0.3059E+02  0.1857E+03
  -2.139  0.4401E+02  0.1861E+03
  -2.129  0.4856E+02  0.1866E+03
  -2.119  0.1955E+02  0.1868E+03
  -2.109  0.1831E+02  0.1870E+03
  -2.099  0.2824E+02  0.1872E+03
  -2.089  0.1021E+02  0.1875E+03
  -2.079  0.1018E+02  0.1876E+03
  -2.069  0.1015E+02  0.1877E+03
  -2.059  0.1012E+02  0.1878E+03
  -2.049  0.1562E+02  0.1880E+03
  -2.039  0.1457E+02  0.1881E+03
  -2.029  0.1353E+02  0.1883E+03
  -2.019  0.1277E+02  0.1884E+03
  -2.009  0.1176E+02  0.1885E+03
  -1.999  0.1075E+02  0.1887E+03
  -1.989  0.9736E+01  0.1888E+03
  -1.979  0.8725E+01  0.1888E+03
  -1.969  0.8052E+01  0.1889E+03
  -1.959  0.7944E+01  0.1890E+03
  -1.949  0.7836E+01  0.1891E+03
  -1.939  0.7728E+01  0.1892E+03
  -1.929  0.7620E+01  0.1892E+03
  -1.919  0.7513E+01  0.1893E+03
  -1.909  0.9930E+01  0.1894E+03
  -1.899  0.1274E+02  0.1895E+03
  -1.889  0.1555E+02  0.1897E+03
  -1.879  0.1862E+02  0.1898E+03
  -1.869  0.2562E+02  0.1903E+03
  -1.859  0.3041E+02  0.1905E+03
  -1.849  0.3533E+02  0.1909E+03
  -1.839  0.1113E+03  0.1913E+03
  -1.829  0.1819E+02  0.1919E+03
  -1.819  0.1584E+02  0.1921E+03
  -1.809  0.1319E+02  0.1923E+03
  -1.799  0.1059E+02  0.1924E+03
  -1.789  0.1022E+02  0.1925E+03
  -1.779  0.9862E+01  0.1926E+03
  -1.769  0.9500E+01  0.1927E+03
  -1.759  0.9137E+01  0.1928E+03
  -1.749  0.8774E+01  0.1929E+03
  -1.739  0.8412E+01  0.1929E+03
  -1.729  0.8049E+01  0.1930E+03
  -1.719  0.7686E+01  0.1931E+03
  -1.709  0.7324E+01  0.1932E+03
  -1.699  0.7430E+01  0.1933E+03
  -1.689  0.7639E+01  0.1933E+03
  -1.679  0.7848E+01  0.1934E+03
  -1.669  0.8057E+01  0.1935E+03
  -1.659  0.8265E+01  0.1936E+03
  -1.649  0.8474E+01  0.1937E+03
  -1.639  0.6792E+01  0.1937E+03
  -1.629  0.7157E+01  0.1938E+03
  -1.619  0.1236E+02  0.1939E+03
  -1.609  0.1756E+02  0.1940E+03
  -1.599  0.2277E+02  0.1942E+03
  -1.589  0.2937E+02  0.1945E+03
  -1.579  0.3989E+02  0.1948E+03
  -1.569  0.1272E+02  0.1952E+03
  -1.559  0.8394E+01  0.1953E+03
  -1.549  0.3161E+02  0.1955E+03
  -1.539  0.1648E+02  0.1957E+03
  -1.529  0.1526E+02  0.1959E+03
  -1.519  0.1404E+02  0.1960E+03
  -1.509  0.1282E+02  0.1962E+03
  -1.499  0.1161E+02  0.1963E+03
  -1.489  0.1039E+02  0.1964E+03
  -1.479  0.9169E+01  0.1965E+03
  -1.469  0.7951E+01  0.1966E+03
  -1.459  0.6978E+01  0.1967E+03
  -1.449  0.7335E+01  0.1967E+03
  -1.439  0.9676E+01  0.1968E+03
  -1.429  0.9520E+01  0.1969E+03
  -1.419  0.9363E+01  0.1970E+03
  -1.409  0.9207E+01  0.1971E+03
  -1.399  0.9051E+01  0.1972E+03
  -1.389  0.8895E+01  0.1973E+03
  -1.379  0.8738E+01  0.1974E+03
  -1.369  0.9132E+01  0.1975E+03
  -1.359  0.9660E+01  0.1976E+03
  -1.349  0.1019E+02  0.1977E+03
  -1.339  0.1072E+02  0.1978E+03
  -1.329  0.1124E+02  0.1979E+03
  -1.319  0.6259E+01  0.1979E+03
  -1.309  0.6244E+01  0.1980E+03
  -1.299  0.6229E+01  0.1981E+03
  -1.289  0.6214E+01  0.1981E+03
  -1.279  0.6199E+01  0.1982E+03
  -1.269  0.6184E+01  0.1983E+03
  -1.259  0.6168E+01  0.1983E+03
  -1.249  0.6149E+01  0.1984E+03
  -1.239  0.6053E+01  0.1984E+03
  -1.229  0.5917E+01  0.1985E+03
  -1.219  0.5760E+01  0.1986E+03
  -1.209  0.5604E+01  0.1986E+03
  -1.199  0.5447E+01  0.1987E+03
  -1.189  0.5290E+01  0.1987E+03
  -1.179  0.5133E+01  0.1988E+03
  -1.169  0.4976E+01  0.1988E+03
  -1.159  0.4819E+01  0.1989E+03
  -1.149  0.4662E+01  0.1989E+03
  -1.139  0.4506E+01  0.1990E+03
  -1.129  0.4349E+01  0.1990E+03
  -1.119  0.4192E+01  0.1991E+03
  -1.109  0.4035E+01  0.1991E+03
  -1.099  0.3933E+01  0.1991E+03
  -1.089  0.3896E+01  0.1992E+03
  -1.079  0.3858E+01  0.1992E+03
  -1.069  0.3820E+01  0.1993E+03
  -1.059  0.3782E+01  0.1993E+03
  -1.049  0.3744E+01  0.1993E+03
  -1.039  0.3707E+01  0.1994E+03
  -1.029  0.3669E+01  0.1994E+03
  -1.019  0.3631E+01  0.1994E+03
  -1.009  0.3593E+01  0.1995E+03
  -0.999  0.3556E+01  0.1995E+03
  -0.989  0.3518E+01  0.1995E+03
  -0.979  0.3480E+01  0.1996E+03
  -0.969  0.3442E+01  0.1996E+03
  -0.959  0.3404E+01  0.1997E+03
  -0.949  0.2760E+01  0.1997E+03
  -0.939  0.2639E+01  0.1997E+03
  -0.929  0.2518E+01  0.1997E+03
  -0.919  0.2398E+01  0.1998E+03
  -0.909  0.2277E+01  0.1998E+03
  -0.899  0.2156E+01  0.1998E+03
  -0.889  0.2036E+01  0.1998E+03
  -0.879  0.1915E+01  0.1998E+03
  -0.869  0.1794E+01  0.1999E+03
  -0.859  0.1674E+01  0.1999E+03
  -0.849  0.1553E+01  0.1999E+03
  -0.839  0.1432E+01  0.1999E+03
  -0.829  0.1312E+01  0.1999E+03
  -0.819  0.1191E+01  0.1999E+03
  -0.809  0.1071E+01  0.2000E+03
  -0.799  0.9499E+00  0.2000E+03
  -0.789  0.8292E+00  0.2000E+03
  -0.779  0.7086E+00  0.2000E+03
  -0.769  0.5880E+00  0.2000E+03
  -0.759  0.4673E+00  0.2000E+03
  -0.749  0.3467E+00  0.2000E+03
  -0.739  0.2260E+00  0.2000E+03
  -0.729  0.1054E+00  0.2000E+03
  -0.719  0.0000E+00  0.2000E+03
  -0.709  0.0000E+00  0.2000E+03
  -0.699  0.0000E+00  0.2000E+03
  -0.689  0.0000E+00  0.2000E+03
  -0.679  0.0000E+00  0.2000E+03
  -0.669  0.0000E+00  0.2000E+03
  -0.659  0.0000E+00  0.2000E+03
  -0.649  0.0000E+00  0.2000E+03
  -0.639  0.0000E+00  0.2000E+03
  -0.629  0.0000E+00  0.2000E+03
  -0.619  0.1758E-01  0.2000E+03
  -0.609  0.1069E+00  0.2000E+03
  -0.599  0.1962E+00  0.2000E+03
  -0.589  0.3235E+00  0.2000E+03
  -0.579  0.5111E+00  0.2000E+03
  -0.569  0.7095E+00  0.2000E+03
  -0.559  0.9102E+00  0.2000E+03
  -0.549  0.1111E+01  0.2000E+03
  -0.539  0.1312E+01  0.2000E+03
  -0.529  0.1513E+01  0.2001E+03
  -0.519  0.1713E+01  0.2001E+03
  -0.509  0.1914E+01  0.2001E+03
  -0.499  0.2115E+01  0.2001E+03
  -0.489  0.2316E+01  0.2001E+03
  -0.479  0.2516E+01  0.2002E+03
  -0.469  0.2717E+01  0.2002E+03
  -0.459  0.2918E+01  0.2002E+03
  -0.449  0.3119E+01  0.2002E+03
  -0.439  0.3320E+01  0.2003E+03
  -0.429  0.3520E+01  0.2003E+03
  -0.419  0.6951E+01  0.2004E+03
  -0.409  0.7063E+01  0.2004E+03
  -0.399  0.7666E+01  0.2005E+03
  -0.389  0.7838E+01  0.2006E+03
  -0.379  0.8010E+01  0.2007E+03
  -0.369  0.8182E+01  0.2008E+03
  -0.359  0.9505E+01  0.2008E+03
  -0.349  0.1821E+02  0.2010E+03
  -0.339  0.3104E+02  0.2012E+03
  -0.329  0.4387E+02  0.2016E+03
  -0.319  0.2349E+02  0.2019E+03
  -0.309  0.2289E+02  0.2021E+03
  -0.299  0.2229E+02  0.2024E+03
  -0.289  0.1410E+02  0.2026E+03
  -0.279  0.4698E+01  0.2027E+03
  -0.269  0.4870E+01  0.2027E+03
  -0.259  0.1922E+02  0.2028E+03
  -0.249  0.2149E+02  0.2030E+03
  -0.239  0.2546E+02  0.2032E+03
  -0.229  0.5706E+02  0.2036E+03
  -0.219  0.4692E+00  0.2041E+03
  -0.209  0.4823E+00  0.2041E+03
  -0.199  0.4954E+00  0.2041E+03
  -0.189  0.5085E+00  0.2041E+03
  -0.179  0.5216E+00  0.2041E+03
  -0.169  0.5347E+00  0.2041E+03
  -0.159  0.5478E+00  0.2041E+03
  -0.149  0.5609E+00  0.2041E+03
  -0.139  0.5740E+00  0.2041E+03
  -0.129  0.5871E+00  0.2041E+03
  -0.119  0.6002E+00  0.2041E+03
  -0.109  0.2200E+01  0.2041E+03
  -0.099  0.4390E+01  0.2042E+03
  -0.089  0.1155E+02  0.2042E+03
  -0.079  0.2556E+02  0.2044E+03
  -0.069  0.5807E+02  0.2048E+03
  -0.059  0.1218E+03  0.2058E+03
  -0.049  0.3308E+02  0.2067E+03
  -0.039  0.2975E+02  0.2070E+03
  -0.029  0.2860E+02  0.2072E+03
  -0.019  0.3912E+02  0.2076E+03
  -0.009  0.3549E+02  0.2080E+03
   0.001  0.3086E+02  0.2083E+03
   0.011  0.2762E+02  0.2086E+03
   0.021  0.2441E+02  0.2089E+03
   0.031  0.1957E+02  0.2091E+03
   0.041  0.1789E+02  0.2093E+03
   0.051  0.2078E+02  0.2095E+03
   0.061  0.3189E+02  0.2097E+03
   0.071  0.2879E+02  0.2101E+03
   0.081  0.5159E+01  0.2102E+03
   0.091  0.7902E+00  0.2103E+03
   0.101  0.7998E+00  0.2103E+03
   0.111  0.8094E+00  0.2103E+03
   0.121  0.8190E+00  0.2103E+03
   0.131  0.8286E+00  0.2103E+03
   0.141  0.8381E+00  0.2103E+03
   0.151  0.8477E+00  0.2103E+03
   0.161  0.8573E+00  0.2103E+03
   0.171  0.8669E+00  0.2103E+03
   0.181  0.8765E+00  0.2103E+03
   0.191  0.8861E+00  0.2103E+03
   0.201  0.8956E+00  0.2104E+03
   0.211  0.9052E+00  0.2104E+03
   0.221  0.9148E+00  0.2104E+03
   0.231  0.9244E+00  0.2104E+03
   0.241  0.9340E+00  0.2104E+03
   0.251  0.9436E+00  0.2104E+03
   0.261  0.9532E+00  0.2104E+03
   0.271  0.9627E+00  0.2104E+03
   0.281  0.9723E+00  0.2104E+03
   0.291  0.9819E+00  0.2104E+03
   0.301  0.9915E+00  0.2104E+03
   0.311  0.1001E+01  0.2105E+03
   0.321  0.1011E+01  0.2105E+03
   0.331  0.1020E+01  0.2105E+03
   0.341  0.1030E+01  0.2105E+03
   0.351  0.1039E+01  0.2105E+03
   0.361  0.1049E+01  0.2105E+03
   0.371  0.1059E+01  0.2105E+03
   0.381  0.1958E+01  0.2105E+03
   0.391  0.5977E+01  0.2106E+03
   0.401  0.9995E+01  0.2106E+03
   0.411  0.3831E+01  0.2107E+03
   0.421  0.4129E+01  0.2108E+03
   0.431  0.4426E+01  0.2108E+03
   0.441  0.5089E+01  0.2109E+03
   0.451  0.5761E+01  0.2109E+03
   0.461  0.7563E+01  0.2110E+03
   0.471  0.1259E+02  0.2111E+03
   0.481  0.1812E+02  0.2112E+03
   0.491  0.2365E+02  0.2115E+03
   0.501  0.2918E+02  0.2117E+03
   0.511  0.3470E+02  0.2120E+03
   0.521  0.2434E+02  0.2123E+03
   0.531  0.2459E+02  0.2125E+03
   0.541  0.2518E+02  0.2128E+03
   0.551  0.2266E+02  0.2130E+03
   0.561  0.1706E+02  0.2132E+03
   0.571  0.1284E+02  0.2134E+03
   0.581  0.1351E+02  0.2135E+03
   0.591  0.1421E+02  0.2136E+03
   0.601  0.1541E+02  0.2138E+03
   0.611  0.1661E+02  0.2140E+03
   0.621  0.1675E+02  0.2141E+03
   0.631  0.1479E+02  0.2143E+03
   0.641  0.1559E+02  0.2144E+03
   0.651  0.1664E+02  0.2146E+03
   0.661  0.1661E+02  0.2148E+03
   0.671  0.1657E+02  0.2149E+03
   0.681  0.1654E+02  0.2151E+03
   0.691  0.1650E+02  0.2153E+03
   0.701  0.1654E+02  0.2154E+03
   0.711  0.1674E+02  0.2156E+03
   0.721  0.1694E+02  0.2158E+03
   0.731  0.1715E+02  0.2159E+03
   0.741  0.1735E+02  0.2161E+03
   0.751  0.2213E+02  0.2163E+03
   0.761  0.2153E+02  0.2165E+03
   0.771  0.2093E+02  0.2167E+03
   0.781  0.2033E+02  0.2169E+03
   0.791  0.1962E+02  0.2171E+03
   0.801  0.1816E+02  0.2173E+03
   0.811  0.1683E+02  0.2175E+03
   0.821  0.1701E+02  0.2177E+03
   0.831  0.2717E+02  0.2179E+03
   0.841  0.2454E+02  0.2181E+03
   0.851  0.2190E+02  0.2184E+03
   0.861  0.1927E+02  0.2186E+03
   0.871  0.2311E+02  0.2188E+03
   0.881  0.2539E+02  0.2190E+03
   0.891  0.2876E+02  0.2193E+03
   0.901  0.2327E+02  0.2196E+03
   0.911  0.2723E+02  0.2198E+03
   0.921  0.3026E+02  0.2201E+03
   0.931  0.3111E+02  0.2204E+03
   0.941  0.2919E+02  0.2207E+03
   0.951  0.2727E+02  0.2210E+03
   0.961  0.2535E+02  0.2213E+03
   0.971  0.1917E+02  0.2215E+03
   0.981  0.1888E+02  0.2217E+03
   0.991  0.1542E+02  0.2218E+03
   1.001  0.1775E+02  0.2220E+03
   1.011  0.2008E+02  0.2222E+03
   1.021  0.2242E+02  0.2224E+03
   1.031  0.7268E+02  0.2227E+03
   1.041  0.8161E+01  0.2233E+03
   1.051  0.2162E+02  0.2234E+03
   1.061  0.1946E+02  0.2236E+03
   1.071  0.1729E+02  0.2238E+03
   1.081  0.1513E+02  0.2239E+03
   1.091  0.1317E+02  0.2241E+03
   1.101  0.1160E+02  0.2242E+03
   1.111  0.3619E+02  0.2245E+03
   1.121  0.1363E+02  0.2246E+03
   1.131  0.1301E+02  0.2248E+03
   1.141  0.1367E+02  0.2249E+03
   1.151  0.1449E+02  0.2250E+03
   1.161  0.1531E+02  0.2252E+03
   1.171  0.1687E+02  0.2253E+03
   1.181  0.1840E+02  0.2255E+03
   1.191  0.1905E+02  0.2257E+03
   1.201  0.2023E+02  0.2259E+03
   1.211  0.2482E+02  0.2261E+03
   1.221  0.2951E+02  0.2264E+03
   1.231  0.3349E+02  0.2267E+03
   1.241  0.3114E+02  0.2270E+03
   1.251  0.3360E+02  0.2273E+03
   1.261  0.3843E+02  0.2277E+03
   1.271  0.4326E+02  0.2281E+03
   1.281  0.4775E+02  0.2285E+03
   1.291  0.3032E+02  0.2290E+03
   1.301  0.3754E+02  0.2294E+03
   1.311  0.3459E+02  0.2297E+03
   1.321  0.3255E+02  0.2301E+03
   1.331  0.2056E+02  0.2304E+03
   1.341  0.1888E+02  0.2306E+03
   1.351  0.2731E+02  0.2308E+03
   1.361  0.3376E+02  0.2311E+03
   1.371  0.2965E+02  0.2314E+03
   1.381  0.2553E+02  0.2317E+03
   1.391  0.2297E+02  0.2319E+03
   1.401  0.2087E+02  0.2322E+03
   1.411  0.1885E+02  0.2324E+03
   1.421  0.1747E+02  0.2325E+03
   1.431  0.2413E+02  0.2327E+03
   1.441  0.2041E+02  0.2330E+03
   1.451  0.1669E+02  0.2332E+03
   1.461  0.1297E+02  0.2333E+03
   1.471  0.9870E+01  0.2334E+03
   1.481  0.9366E+01  0.2335E+03
   1.491  0.9662E+01  0.2336E+03
   1.501  0.1776E+02  0.2337E+03
   1.511  0.2491E+02  0.2339E+03
   1.521  0.3212E+02  0.2342E+03
   1.531  0.3933E+02  0.2346E+03
   1.541  0.1709E+02  0.2348E+03
   1.551  0.1695E+02  0.2349E+03
   1.561  0.2957E+02  0.2352E+03
   1.571  0.2515E+02  0.2355E+03
   1.581  0.2073E+02  0.2357E+03
   1.591  0.2097E+02  0.2359E+03
   1.601  0.2201E+02  0.2361E+03
   1.611  0.2313E+02  0.2363E+03
   1.621  0.1861E+02  0.2366E+03
   1.631  0.1880E+02  0.2367E+03
   1.641  0.1899E+02  0.2369E+03
   1.651  0.1918E+02  0.2371E+03
   1.661  0.1950E+02  0.2373E+03
   1.671  0.1961E+02  0.2375E+03
   1.681  0.1960E+02  0.2377E+03
   1.691  0.1960E+02  0.2379E+03
   1.701  0.1931E+02  0.2381E+03
   1.711  0.1888E+02  0.2383E+03
   1.721  0.1845E+02  0.2385E+03
   1.731  0.1305E+02  0.2386E+03
   1.741  0.1221E+02  0.2388E+03
   1.751  0.1137E+02  0.2389E+03
   1.761  0.1052E+02  0.2390E+03
   1.771  0.9684E+01  0.2391E+03
   1.781  0.2126E+02  0.2392E+03
   1.791  0.1796E+02  0.2394E+03
   1.801  0.1467E+02  0.2396E+03
   1.811  0.1137E+02  0.2397E+03
   1.821  0.8080E+01  0.2398E+03
   1.831  0.4786E+01  0.2398E+03
   1.841  0.3765E+01  0.2399E+03
   1.851  0.2909E+01  0.2399E+03
   1.861  0.2155E+01  0.2399E+03
   1.871  0.1740E+01  0.2400E+03
   1.881  0.1324E+01  0.2400E+03
   1.891  0.9090E+00  0.2400E+03
   1.901  0.4936E+00  0.2400E+03
   1.911  0.7820E-01  0.2400E+03
