# E (eV)  dos(E)    pdos(E)
 -15.919  0.000E+00  0.000E+00
 -15.909  0.393E+01  0.391E+01
 -15.899  0.785E+01  0.781E+01
 -15.889  0.576E+01  0.573E+01
 -15.879  0.609E+01  0.606E+01
 -15.869  0.641E+01  0.638E+01
 -15.859  0.674E+01  0.670E+01
 -15.849  0.706E+01  0.703E+01
 -15.839  0.739E+01  0.735E+01
 -15.829  0.752E+01  0.748E+01
 -15.819  0.713E+01  0.709E+01
 -15.809  0.674E+01  0.671E+01
 -15.799  0.654E+01  0.651E+01
 -15.789  0.670E+01  0.667E+01
 -15.779  0.687E+01  0.684E+01
 -15.769  0.704E+01  0.700E+01
 -15.759  0.720E+01  0.717E+01
 -15.749  0.737E+01  0.733E+01
 -15.739  0.753E+01  0.750E+01
 -15.729  0.770E+01  0.766E+01
 -15.719  0.787E+01  0.783E+01
 -15.709  0.157E+02  0.156E+02
 -15.699  0.125E+02  0.125E+02
 -15.689  0.938E+01  0.933E+01
 -15.679  0.622E+01  0.619E+01
 -15.669  0.338E+01  0.336E+01
 -15.659  0.292E+01  0.291E+01
 -15.649  0.247E+01  0.245E+01
 -15.639  0.228E+01  0.227E+01
 -15.629  0.249E+01  0.248E+01
 -15.619  0.269E+01  0.268E+01
 -15.609  0.290E+01  0.288E+01
 -15.599  0.310E+01  0.309E+01
 -15.589  0.357E+01  0.356E+01
 -15.579  0.423E+01  0.422E+01
 -15.569  0.489E+01  0.487E+01
 -15.559  0.105E+02  0.105E+02
 -15.549  0.247E+02  0.246E+02
 -15.539  0.529E+01  0.526E+01
 -15.529  0.536E+01  0.534E+01
 -15.519  0.544E+01  0.541E+01
 -15.509  0.551E+01  0.548E+01
 -15.499  0.558E+01  0.556E+01
 -15.489  0.566E+01  0.563E+01
 -15.479  0.573E+01  0.570E+01
 -15.469  0.580E+01  0.578E+01
 -15.459  0.588E+01  0.585E+01
 -15.449  0.596E+01  0.593E+01
 -15.439  0.605E+01  0.602E+01
 -15.429  0.614E+01  0.611E+01
 -15.419  0.623E+01  0.620E+01
 -15.409  0.632E+01  0.629E+01
 -15.399  0.641E+01  0.638E+01
 -15.389  0.650E+01  0.647E+01
 -15.379  0.659E+01  0.656E+01
 -15.369  0.668E+01  0.665E+01
 -15.359  0.911E+01  0.908E+01
 -15.349  0.874E+01  0.870E+01
 -15.339  0.836E+01  0.832E+01
 -15.329  0.798E+01  0.795E+01
 -15.319  0.766E+01  0.763E+01
 -15.309  0.739E+01  0.736E+01
 -15.299  0.713E+01  0.710E+01
 -15.289  0.719E+01  0.716E+01
 -15.279  0.729E+01  0.726E+01
 -15.269  0.738E+01  0.735E+01
 -15.259  0.748E+01  0.745E+01
 -15.249  0.757E+01  0.754E+01
 -15.239  0.767E+01  0.764E+01
 -15.229  0.776E+01  0.773E+01
 -15.219  0.786E+01  0.782E+01
 -15.209  0.795E+01  0.792E+01
 -15.199  0.654E+01  0.651E+01
 -15.189  0.659E+01  0.656E+01
 -15.179  0.664E+01  0.661E+01
 -15.169  0.669E+01  0.666E+01
 -15.159  0.673E+01  0.671E+01
 -15.149  0.678E+01  0.676E+01
 -15.139  0.648E+01  0.645E+01
 -15.129  0.643E+01  0.640E+01
 -15.119  0.638E+01  0.636E+01
 -15.109  0.659E+01  0.656E+01
 -15.099  0.659E+01  0.657E+01
 -15.089  0.659E+01  0.657E+01
 -15.079  0.660E+01  0.657E+01
 -15.069  0.660E+01  0.657E+01
 -15.059  0.660E+01  0.658E+01
 -15.049  0.661E+01  0.658E+01
 -15.039  0.661E+01  0.658E+01
 -15.029  0.802E+01  0.798E+01
 -15.019  0.119E+02  0.118E+02
 -15.009  0.113E+02  0.112E+02
 -14.999  0.106E+02  0.106E+02
 -14.989  0.100E+02  0.100E+02
 -14.979  0.943E+01  0.939E+01
 -14.969  0.882E+01  0.878E+01
 -14.959  0.820E+01  0.817E+01
 -14.949  0.759E+01  0.756E+01
 -14.939  0.698E+01  0.696E+01
 -14.929  0.637E+01  0.635E+01
 -14.919  0.576E+01  0.574E+01
 -14.909  0.517E+01  0.515E+01
 -14.899  0.483E+01  0.482E+01
 -14.889  0.470E+01  0.468E+01
 -14.879  0.456E+01  0.455E+01
 -14.869  0.463E+01  0.461E+01
 -14.859  0.113E+02  0.112E+02
 -14.849  0.977E+01  0.973E+01
 -14.839  0.825E+01  0.822E+01
 -14.829  0.673E+01  0.670E+01
 -14.819  0.521E+01  0.519E+01
 -14.809  0.369E+01  0.368E+01
 -14.799  0.405E+01  0.403E+01
 -14.789  0.479E+01  0.477E+01
 -14.779  0.554E+01  0.552E+01
 -14.769  0.629E+01  0.626E+01
 -14.759  0.703E+01  0.701E+01
 -14.749  0.778E+01  0.775E+01
 -14.739  0.853E+01  0.850E+01
 -14.729  0.928E+01  0.924E+01
 -14.719  0.100E+02  0.999E+01
 -14.709  0.108E+02  0.107E+02
 -14.699  0.653E+01  0.651E+01
 -14.689  0.565E+01  0.563E+01
 -14.679  0.570E+01  0.568E+01
 -14.669  0.574E+01  0.572E+01
 -14.659  0.579E+01  0.576E+01
 -14.649  0.583E+01  0.581E+01
 -14.639  0.587E+01  0.585E+01
 -14.629  0.592E+01  0.590E+01
 -14.619  0.596E+01  0.594E+01
 -14.609  0.601E+01  0.599E+01
 -14.599  0.605E+01  0.603E+01
 -14.589  0.610E+01  0.608E+01
 -14.579  0.614E+01  0.612E+01
 -14.569  0.619E+01  0.617E+01
 -14.559  0.931E+01  0.928E+01
 -14.549  0.192E+02  0.191E+02
 -14.539  0.290E+02  0.289E+02
 -14.529  0.684E+01  0.682E+01
 -14.519  0.684E+01  0.682E+01
 -14.509  0.684E+01  0.682E+01
 -14.499  0.685E+01  0.682E+01
 -14.489  0.685E+01  0.683E+01
 -14.479  0.685E+01  0.683E+01
 -14.469  0.685E+01  0.683E+01
 -14.459  0.686E+01  0.683E+01
 -14.449  0.696E+01  0.694E+01
 -14.439  0.709E+01  0.707E+01
 -14.429  0.722E+01  0.720E+01
 -14.419  0.736E+01  0.733E+01
 -14.409  0.749E+01  0.746E+01
 -14.399  0.762E+01  0.759E+01
 -14.389  0.775E+01  0.773E+01
 -14.379  0.788E+01  0.786E+01
 -14.369  0.802E+01  0.799E+01
 -14.359  0.815E+01  0.812E+01
 -14.349  0.828E+01  0.825E+01
 -14.339  0.841E+01  0.838E+01
 -14.329  0.848E+01  0.846E+01
 -14.319  0.856E+01  0.853E+01
 -14.309  0.867E+01  0.864E+01
 -14.299  0.885E+01  0.882E+01
 -14.289  0.904E+01  0.901E+01
 -14.279  0.922E+01  0.919E+01
 -14.269  0.940E+01  0.937E+01
 -14.259  0.959E+01  0.956E+01
 -14.249  0.977E+01  0.974E+01
 -14.239  0.996E+01  0.992E+01
 -14.229  0.101E+02  0.101E+02
 -14.219  0.122E+02  0.122E+02
 -14.209  0.104E+02  0.104E+02
 -14.199  0.866E+01  0.863E+01
 -14.189  0.688E+01  0.686E+01
 -14.179  0.510E+01  0.509E+01
 -14.169  0.344E+01  0.343E+01
 -14.159  0.707E+01  0.705E+01
 -14.149  0.108E+02  0.107E+02
 -14.139  0.111E+02  0.110E+02
 -14.129  0.103E+02  0.103E+02
 -14.119  0.961E+01  0.958E+01
 -14.109  0.889E+01  0.886E+01
 -14.099  0.816E+01  0.814E+01
 -14.089  0.744E+01  0.742E+01
 -14.079  0.671E+01  0.669E+01
 -14.069  0.315E+01  0.314E+01
 -14.059  0.324E+01  0.323E+01
 -14.049  0.334E+01  0.333E+01
 -14.039  0.343E+01  0.342E+01
 -14.029  0.352E+01  0.351E+01
 -14.019  0.362E+01  0.360E+01
 -14.009  0.371E+01  0.370E+01
 -13.999  0.380E+01  0.379E+01
 -13.989  0.390E+01  0.388E+01
 -13.979  0.399E+01  0.398E+01
 -13.969  0.408E+01  0.407E+01
 -13.959  0.417E+01  0.416E+01
 -13.949  0.427E+01  0.425E+01
 -13.939  0.436E+01  0.435E+01
 -13.929  0.445E+01  0.444E+01
 -13.919  0.117E+02  0.116E+02
 -13.909  0.117E+02  0.116E+02
 -13.899  0.117E+02  0.117E+02
 -13.889  0.117E+02  0.117E+02
 -13.879  0.118E+02  0.117E+02
 -13.869  0.118E+02  0.118E+02
 -13.859  0.949E+01  0.946E+01
 -13.849  0.611E+01  0.610E+01
 -13.839  0.473E+01  0.471E+01
 -13.829  0.603E+01  0.601E+01
 -13.819  0.733E+01  0.731E+01
 -13.809  0.863E+01  0.860E+01
 -13.799  0.992E+01  0.990E+01
 -13.789  0.112E+02  0.112E+02
 -13.779  0.125E+02  0.125E+02
 -13.769  0.288E+02  0.287E+02
 -13.759  0.155E+02  0.154E+02
 -13.749  0.107E+02  0.106E+02
 -13.739  0.972E+01  0.969E+01
 -13.729  0.878E+01  0.876E+01
 -13.719  0.784E+01  0.782E+01
 -13.709  0.707E+01  0.705E+01
 -13.699  0.629E+01  0.628E+01
 -13.689  0.555E+01  0.554E+01
 -13.679  0.486E+01  0.485E+01
 -13.669  0.494E+01  0.493E+01
 -13.659  0.504E+01  0.502E+01
 -13.649  0.514E+01  0.512E+01
 -13.639  0.567E+01  0.566E+01
 -13.629  0.624E+01  0.622E+01
 -13.619  0.685E+01  0.683E+01
 -13.609  0.745E+01  0.743E+01
 -13.599  0.806E+01  0.804E+01
 -13.589  0.867E+01  0.865E+01
 -13.579  0.928E+01  0.926E+01
 -13.569  0.989E+01  0.986E+01
 -13.559  0.105E+02  0.105E+02
 -13.549  0.111E+02  0.111E+02
 -13.539  0.117E+02  0.117E+02
 -13.529  0.123E+02  0.123E+02
 -13.519  0.129E+02  0.129E+02
 -13.509  0.106E+02  0.105E+02
 -13.499  0.105E+02  0.105E+02
 -13.489  0.106E+02  0.106E+02
 -13.479  0.194E+02  0.193E+02
 -13.469  0.101E+02  0.101E+02
 -13.459  0.950E+01  0.948E+01
 -13.449  0.946E+01  0.944E+01
 -13.439  0.942E+01  0.939E+01
 -13.429  0.934E+01  0.932E+01
 -13.419  0.916E+01  0.914E+01
 -13.409  0.899E+01  0.897E+01
 -13.399  0.882E+01  0.879E+01
 -13.389  0.864E+01  0.862E+01
 -13.379  0.847E+01  0.845E+01
 -13.369  0.829E+01  0.827E+01
 -13.359  0.810E+01  0.808E+01
 -13.349  0.791E+01  0.789E+01
 -13.339  0.773E+01  0.772E+01
 -13.329  0.773E+01  0.772E+01
 -13.319  0.773E+01  0.772E+01
 -13.309  0.774E+01  0.772E+01
 -13.299  0.774E+01  0.772E+01
 -13.289  0.774E+01  0.772E+01
 -13.279  0.774E+01  0.772E+01
 -13.269  0.100E+02  0.998E+01
 -13.259  0.101E+02  0.101E+02
 -13.249  0.102E+02  0.102E+02
 -13.239  0.103E+02  0.102E+02
 -13.229  0.103E+02  0.103E+02
 -13.219  0.104E+02  0.104E+02
 -13.209  0.105E+02  0.105E+02
 -13.199  0.106E+02  0.106E+02
 -13.189  0.107E+02  0.107E+02
 -13.179  0.108E+02  0.108E+02
 -13.169  0.109E+02  0.108E+02
 -13.159  0.110E+02  0.109E+02
 -13.149  0.111E+02  0.111E+02
 -13.139  0.160E+02  0.160E+02
 -13.129  0.210E+02  0.210E+02
 -13.119  0.260E+02  0.260E+02
 -13.109  0.200E+02  0.199E+02
 -13.099  0.174E+02  0.174E+02
 -13.089  0.153E+02  0.152E+02
 -13.079  0.132E+02  0.132E+02
 -13.069  0.129E+02  0.129E+02
 -13.059  0.115E+02  0.114E+02
 -13.049  0.998E+01  0.996E+01
 -13.039  0.889E+01  0.887E+01
 -13.029  0.803E+01  0.802E+01
 -13.019  0.770E+00  0.768E+00
 -13.009  0.100E+01  0.100E+01
 -12.999  0.177E+01  0.176E+01
 -12.989  0.270E+01  0.270E+01
 -12.979  0.430E+01  0.429E+01
 -12.969  0.590E+01  0.589E+01
 -12.959  0.750E+01  0.748E+01
 -12.949  0.988E+01  0.986E+01
 -12.939  0.125E+02  0.125E+02
 -12.929  0.152E+02  0.151E+02
 -12.919  0.178E+02  0.178E+02
 -12.909  0.224E+02  0.224E+02
 -12.899  0.320E+02  0.319E+02
 -12.889  0.220E+02  0.219E+02
 -12.879  0.209E+02  0.209E+02
 -12.869  0.198E+02  0.198E+02
 -12.859  0.188E+02  0.187E+02
 -12.849  0.177E+02  0.177E+02
 -12.839  0.169E+02  0.169E+02
 -12.829  0.180E+02  0.180E+02
 -12.819  0.191E+02  0.190E+02
 -12.809  0.201E+02  0.201E+02
 -12.799  0.169E+02  0.169E+02
 -12.789  0.165E+02  0.165E+02
 -12.779  0.291E+02  0.291E+02
 -12.769  0.284E+02  0.283E+02
 -12.759  0.131E+02  0.130E+02
 -12.749  0.122E+02  0.122E+02
 -12.739  0.114E+02  0.114E+02
 -12.729  0.105E+02  0.105E+02
 -12.719  0.968E+01  0.966E+01
 -12.709  0.883E+01  0.882E+01
 -12.699  0.799E+01  0.797E+01
 -12.689  0.721E+01  0.720E+01
 -12.679  0.691E+01  0.690E+01
 -12.669  0.661E+01  0.659E+01
 -12.659  0.630E+01  0.629E+01
 -12.649  0.604E+01  0.603E+01
 -12.639  0.622E+01  0.621E+01
 -12.629  0.774E+01  0.773E+01
 -12.619  0.947E+01  0.946E+01
 -12.609  0.112E+02  0.112E+02
 -12.599  0.129E+02  0.129E+02
 -12.589  0.147E+02  0.147E+02
 -12.579  0.164E+02  0.164E+02
 -12.569  0.811E+01  0.810E+01
 -12.559  0.832E+01  0.831E+01
 -12.549  0.853E+01  0.852E+01
 -12.539  0.874E+01  0.873E+01
 -12.529  0.889E+01  0.888E+01
 -12.519  0.949E+01  0.948E+01
 -12.509  0.960E+01  0.959E+01
 -12.499  0.924E+01  0.923E+01
 -12.489  0.888E+01  0.886E+01
 -12.479  0.851E+01  0.850E+01
 -12.469  0.815E+01  0.814E+01
 -12.459  0.778E+01  0.777E+01
 -12.449  0.742E+01  0.741E+01
 -12.439  0.705E+01  0.704E+01
 -12.429  0.683E+01  0.682E+01
 -12.419  0.682E+01  0.681E+01
 -12.409  0.681E+01  0.680E+01
 -12.399  0.679E+01  0.678E+01
 -12.389  0.678E+01  0.677E+01
 -12.379  0.677E+01  0.676E+01
 -12.369  0.675E+01  0.674E+01
 -12.359  0.674E+01  0.673E+01
 -12.349  0.946E+01  0.945E+01
 -12.339  0.770E+01  0.769E+01
 -12.329  0.595E+01  0.594E+01
 -12.319  0.419E+01  0.419E+01
 -12.309  0.244E+01  0.243E+01
 -12.299  0.680E+00  0.679E+00
 -12.289  0.000E+00  0.000E+00
 -12.279  0.000E+00  0.000E+00
 -12.269  0.000E+00  0.000E+00
 -12.259  0.000E+00  0.000E+00
 -12.249  0.000E+00  0.000E+00
 -12.239  0.000E+00  0.000E+00
 -12.229  0.000E+00  0.000E+00
 -12.219  0.000E+00  0.000E+00
 -12.209  0.000E+00  0.000E+00
 -12.199  0.000E+00  0.000E+00
 -12.189  0.000E+00  0.000E+00
 -12.179  0.000E+00  0.000E+00
 -12.169  0.000E+00  0.000E+00
 -12.159  0.000E+00  0.000E+00
 -12.149  0.000E+00  0.000E+00
 -12.139  0.000E+00  0.000E+00
 -12.129  0.000E+00  0.000E+00
 -12.119  0.000E+00  0.000E+00
 -12.109  0.000E+00  0.000E+00
 -12.099  0.000E+00  0.000E+00
 -12.089  0.000E+00  0.000E+00
 -12.079  0.000E+00  0.000E+00
 -12.069  0.000E+00  0.000E+00
 -12.059  0.000E+00  0.000E+00
 -12.049  0.000E+00  0.000E+00
 -12.039  0.000E+00  0.000E+00
 -12.029  0.000E+00  0.000E+00
 -12.019  0.000E+00  0.000E+00
 -12.009  0.000E+00  0.000E+00
 -11.999  0.156E+01  0.156E+01
 -11.989  0.473E+01  0.472E+01
 -11.979  0.790E+01  0.788E+01
 -11.969  0.514E+01  0.513E+01
 -11.959  0.540E+01  0.539E+01
 -11.949  0.566E+01  0.565E+01
 -11.939  0.592E+01  0.591E+01
 -11.929  0.618E+01  0.617E+01
 -11.919  0.644E+01  0.643E+01
 -11.909  0.670E+01  0.669E+01
 -11.899  0.657E+01  0.656E+01
 -11.889  0.626E+01  0.624E+01
 -11.879  0.595E+01  0.593E+01
 -11.869  0.582E+01  0.580E+01
 -11.859  0.594E+01  0.592E+01
 -11.849  0.606E+01  0.604E+01
 -11.839  0.618E+01  0.616E+01
 -11.829  0.629E+01  0.628E+01
 -11.819  0.641E+01  0.640E+01
 -11.809  0.653E+01  0.652E+01
 -11.799  0.665E+01  0.664E+01
 -11.789  0.677E+01  0.676E+01
 -11.779  0.689E+01  0.688E+01
 -11.769  0.135E+02  0.135E+02
 -11.759  0.113E+02  0.113E+02
 -11.749  0.912E+01  0.910E+01
 -11.739  0.691E+01  0.689E+01
 -11.729  0.469E+01  0.468E+01
 -11.719  0.280E+01  0.279E+01
 -11.709  0.248E+01  0.248E+01
 -11.699  0.222E+01  0.222E+01
 -11.689  0.240E+01  0.239E+01
 -11.679  0.258E+01  0.257E+01
 -11.669  0.276E+01  0.275E+01
 -11.659  0.294E+01  0.293E+01
 -11.649  0.312E+01  0.311E+01
 -11.639  0.330E+01  0.329E+01
 -11.629  0.354E+01  0.353E+01
 -11.619  0.403E+01  0.402E+01
 -11.609  0.747E+01  0.745E+01
 -11.599  0.143E+02  0.143E+02
 -11.589  0.213E+02  0.212E+02
 -11.579  0.471E+01  0.470E+01
 -11.569  0.477E+01  0.476E+01
 -11.559  0.483E+01  0.482E+01
 -11.549  0.489E+01  0.488E+01
 -11.539  0.496E+01  0.494E+01
 -11.529  0.502E+01  0.500E+01
 -11.519  0.508E+01  0.507E+01
 -11.509  0.514E+01  0.513E+01
 -11.499  0.520E+01  0.519E+01
 -11.489  0.526E+01  0.525E+01
 -11.479  0.533E+01  0.532E+01
 -11.469  0.541E+01  0.540E+01
 -11.459  0.549E+01  0.547E+01
 -11.449  0.556E+01  0.555E+01
 -11.439  0.564E+01  0.562E+01
 -11.429  0.571E+01  0.570E+01
 -11.419  0.579E+01  0.577E+01
 -11.409  0.586E+01  0.585E+01
 -11.399  0.594E+01  0.592E+01
 -11.389  0.602E+01  0.600E+01
 -11.379  0.841E+01  0.839E+01
 -11.369  0.806E+01  0.804E+01
 -11.359  0.771E+01  0.769E+01
 -11.349  0.736E+01  0.734E+01
 -11.339  0.701E+01  0.699E+01
 -11.329  0.674E+01  0.672E+01
 -11.319  0.648E+01  0.646E+01
 -11.309  0.649E+01  0.647E+01
 -11.299  0.657E+01  0.656E+01
 -11.289  0.666E+01  0.664E+01
 -11.279  0.674E+01  0.672E+01
 -11.269  0.683E+01  0.681E+01
 -11.259  0.691E+01  0.689E+01
 -11.249  0.699E+01  0.697E+01
 -11.239  0.708E+01  0.706E+01
 -11.229  0.716E+01  0.714E+01
 -11.219  0.724E+01  0.722E+01
 -11.209  0.733E+01  0.731E+01
 -11.199  0.595E+01  0.594E+01
 -11.189  0.599E+01  0.598E+01
 -11.179  0.603E+01  0.601E+01
 -11.169  0.607E+01  0.605E+01
 -11.159  0.611E+01  0.609E+01
 -11.149  0.615E+01  0.613E+01
 -11.139  0.611E+01  0.610E+01
 -11.129  0.593E+01  0.591E+01
 -11.119  0.590E+01  0.588E+01
 -11.109  0.592E+01  0.590E+01
 -11.099  0.603E+01  0.601E+01
 -11.089  0.604E+01  0.602E+01
 -11.079  0.604E+01  0.603E+01
 -11.069  0.605E+01  0.604E+01
 -11.059  0.606E+01  0.605E+01
 -11.049  0.607E+01  0.606E+01
 -11.039  0.608E+01  0.607E+01
 -11.029  0.609E+01  0.608E+01
 -11.019  0.740E+01  0.738E+01
 -11.009  0.108E+02  0.108E+02
 -10.999  0.103E+02  0.103E+02
 -10.989  0.983E+01  0.980E+01
 -10.979  0.932E+01  0.929E+01
 -10.969  0.881E+01  0.879E+01
 -10.959  0.831E+01  0.828E+01
 -10.949  0.780E+01  0.777E+01
 -10.939  0.729E+01  0.727E+01
 -10.929  0.678E+01  0.676E+01
 -10.919  0.628E+01  0.626E+01
 -10.909  0.577E+01  0.575E+01
 -10.899  0.526E+01  0.524E+01
 -10.889  0.477E+01  0.475E+01
 -10.879  0.443E+01  0.442E+01
 -10.869  0.432E+01  0.430E+01
 -10.859  0.432E+01  0.431E+01
 -10.849  0.439E+01  0.437E+01
 -10.839  0.448E+01  0.446E+01
 -10.829  0.112E+02  0.111E+02
 -10.819  0.956E+01  0.953E+01
 -10.809  0.794E+01  0.792E+01
 -10.799  0.632E+01  0.630E+01
 -10.789  0.471E+01  0.469E+01
 -10.779  0.347E+01  0.346E+01
 -10.769  0.407E+01  0.406E+01
 -10.759  0.481E+01  0.479E+01
 -10.749  0.555E+01  0.553E+01
 -10.739  0.629E+01  0.627E+01
 -10.729  0.703E+01  0.700E+01
 -10.719  0.776E+01  0.774E+01
 -10.709  0.850E+01  0.848E+01
 -10.699  0.924E+01  0.921E+01
 -10.689  0.998E+01  0.995E+01
 -10.679  0.107E+02  0.107E+02
 -10.669  0.550E+01  0.548E+01
 -10.659  0.554E+01  0.552E+01
 -10.649  0.559E+01  0.557E+01
 -10.639  0.563E+01  0.561E+01
 -10.629  0.567E+01  0.566E+01
 -10.619  0.572E+01  0.570E+01
 -10.609  0.576E+01  0.574E+01
 -10.599  0.581E+01  0.579E+01
 -10.589  0.585E+01  0.583E+01
 -10.579  0.590E+01  0.588E+01
 -10.569  0.594E+01  0.592E+01
 -10.559  0.598E+01  0.596E+01
 -10.549  0.603E+01  0.601E+01
 -10.539  0.607E+01  0.605E+01
 -10.529  0.612E+01  0.610E+01
 -10.519  0.616E+01  0.614E+01
 -10.509  0.712E+01  0.709E+01
 -10.499  0.191E+02  0.191E+02
 -10.489  0.312E+02  0.311E+02
 -10.479  0.697E+01  0.695E+01
 -10.469  0.699E+01  0.697E+01
 -10.459  0.702E+01  0.700E+01
 -10.449  0.704E+01  0.702E+01
 -10.439  0.707E+01  0.704E+01
 -10.429  0.709E+01  0.707E+01
 -10.419  0.712E+01  0.710E+01
 -10.409  0.722E+01  0.719E+01
 -10.399  0.731E+01  0.729E+01
 -10.389  0.740E+01  0.738E+01
 -10.379  0.750E+01  0.747E+01
 -10.369  0.759E+01  0.757E+01
 -10.359  0.768E+01  0.766E+01
 -10.349  0.778E+01  0.775E+01
 -10.339  0.787E+01  0.785E+01
 -10.329  0.797E+01  0.794E+01
 -10.319  0.801E+01  0.798E+01
 -10.309  0.804E+01  0.801E+01
 -10.299  0.819E+01  0.816E+01
 -10.289  0.835E+01  0.832E+01
 -10.279  0.851E+01  0.849E+01
 -10.269  0.868E+01  0.865E+01
 -10.259  0.884E+01  0.881E+01
 -10.249  0.900E+01  0.898E+01
 -10.239  0.917E+01  0.914E+01
 -10.229  0.933E+01  0.930E+01
 -10.219  0.949E+01  0.946E+01
 -10.209  0.966E+01  0.963E+01
 -10.199  0.982E+01  0.979E+01
 -10.189  0.100E+02  0.998E+01
 -10.179  0.107E+02  0.107E+02
 -10.169  0.115E+02  0.114E+02
 -10.159  0.122E+02  0.121E+02
 -10.149  0.129E+02  0.129E+02
 -10.139  0.173E+02  0.173E+02
 -10.129  0.815E+01  0.813E+01
 -10.119  0.888E+01  0.885E+01
 -10.109  0.105E+02  0.105E+02
 -10.099  0.128E+02  0.127E+02
 -10.089  0.150E+02  0.150E+02
 -10.079  0.835E+01  0.833E+01
 -10.069  0.921E+01  0.918E+01
 -10.059  0.101E+02  0.100E+02
 -10.049  0.126E+02  0.126E+02
 -10.039  0.118E+02  0.118E+02
 -10.029  0.112E+02  0.112E+02
 -10.019  0.107E+02  0.106E+02
 -10.009  0.101E+02  0.101E+02
  -9.999  0.955E+01  0.953E+01
  -9.989  0.900E+01  0.897E+01
  -9.979  0.844E+01  0.842E+01
  -9.969  0.789E+01  0.786E+01
  -9.959  0.733E+01  0.731E+01
  -9.949  0.759E+01  0.757E+01
  -9.939  0.891E+01  0.888E+01
  -9.929  0.104E+02  0.104E+02
  -9.919  0.126E+02  0.125E+02
  -9.909  0.156E+02  0.155E+02
  -9.899  0.185E+02  0.185E+02
  -9.889  0.383E+02  0.382E+02
  -9.879  0.222E+02  0.222E+02
  -9.869  0.227E+02  0.227E+02
  -9.859  0.233E+02  0.232E+02
  -9.849  0.238E+02  0.237E+02
  -9.839  0.195E+02  0.195E+02
  -9.829  0.195E+02  0.195E+02
  -9.819  0.195E+02  0.195E+02
  -9.809  0.195E+02  0.195E+02
  -9.799  0.196E+02  0.195E+02
  -9.789  0.167E+02  0.166E+02
  -9.779  0.335E+01  0.334E+01
  -9.769  0.246E+01  0.245E+01
  -9.759  0.289E+01  0.288E+01
  -9.749  0.332E+01  0.331E+01
  -9.739  0.187E+02  0.186E+02
  -9.729  0.189E+02  0.188E+02
  -9.719  0.192E+02  0.191E+02
  -9.709  0.183E+02  0.183E+02
  -9.699  0.157E+02  0.157E+02
  -9.689  0.132E+02  0.132E+02
  -9.679  0.126E+02  0.125E+02
  -9.669  0.119E+02  0.119E+02
  -9.659  0.116E+02  0.115E+02
  -9.649  0.112E+02  0.112E+02
  -9.639  0.111E+02  0.111E+02
  -9.629  0.111E+02  0.110E+02
  -9.619  0.110E+02  0.110E+02
  -9.609  0.110E+02  0.109E+02
  -9.599  0.116E+02  0.116E+02
  -9.589  0.126E+02  0.126E+02
  -9.579  0.137E+02  0.136E+02
  -9.569  0.147E+02  0.147E+02
  -9.559  0.172E+02  0.172E+02
  -9.549  0.199E+02  0.199E+02
  -9.539  0.226E+02  0.226E+02
  -9.529  0.253E+02  0.252E+02
  -9.519  0.202E+02  0.202E+02
  -9.509  0.206E+02  0.206E+02
  -9.499  0.210E+02  0.209E+02
  -9.489  0.189E+02  0.188E+02
  -9.479  0.176E+02  0.175E+02
  -9.469  0.163E+02  0.162E+02
  -9.459  0.151E+02  0.151E+02
  -9.449  0.145E+02  0.145E+02
  -9.439  0.129E+02  0.129E+02
  -9.429  0.106E+02  0.106E+02
  -9.419  0.989E+01  0.985E+01
  -9.409  0.941E+01  0.938E+01
  -9.399  0.893E+01  0.891E+01
  -9.389  0.846E+01  0.843E+01
  -9.379  0.867E+01  0.865E+01
  -9.369  0.906E+01  0.903E+01
  -9.359  0.944E+01  0.941E+01
  -9.349  0.983E+01  0.980E+01
  -9.339  0.104E+02  0.104E+02
  -9.329  0.117E+02  0.117E+02
  -9.319  0.131E+02  0.131E+02
  -9.309  0.145E+02  0.144E+02
  -9.299  0.158E+02  0.158E+02
  -9.289  0.627E+02  0.625E+02
  -9.279  0.484E+02  0.483E+02
  -9.269  0.350E+02  0.349E+02
  -9.259  0.270E+02  0.269E+02
  -9.249  0.196E+02  0.196E+02
  -9.239  0.123E+02  0.123E+02
  -9.229  0.872E+01  0.869E+01
  -9.219  0.862E+01  0.860E+01
  -9.209  0.852E+01  0.850E+01
  -9.199  0.843E+01  0.841E+01
  -9.189  0.875E+01  0.872E+01
  -9.179  0.973E+01  0.971E+01
  -9.169  0.107E+02  0.107E+02
  -9.159  0.117E+02  0.117E+02
  -9.149  0.127E+02  0.127E+02
  -9.139  0.137E+02  0.136E+02
  -9.129  0.147E+02  0.146E+02
  -9.119  0.144E+02  0.144E+02
  -9.109  0.140E+02  0.139E+02
  -9.099  0.135E+02  0.135E+02
  -9.089  0.131E+02  0.131E+02
  -9.079  0.127E+02  0.127E+02
  -9.069  0.123E+02  0.122E+02
  -9.059  0.118E+02  0.118E+02
  -9.049  0.306E+02  0.305E+02
  -9.039  0.235E+02  0.235E+02
  -9.029  0.645E+01  0.643E+01
  -9.019  0.654E+01  0.652E+01
  -9.009  0.662E+01  0.660E+01
  -8.999  0.671E+01  0.669E+01
  -8.989  0.679E+01  0.677E+01
  -8.979  0.688E+01  0.686E+01
  -8.969  0.696E+01  0.694E+01
  -8.959  0.705E+01  0.703E+01
  -8.949  0.713E+01  0.711E+01
  -8.939  0.722E+01  0.720E+01
  -8.929  0.125E+02  0.125E+02
  -8.919  0.121E+02  0.120E+02
  -8.909  0.116E+02  0.116E+02
  -8.899  0.112E+02  0.111E+02
  -8.889  0.107E+02  0.107E+02
  -8.879  0.103E+02  0.103E+02
  -8.869  0.986E+01  0.983E+01
  -8.859  0.942E+01  0.939E+01
  -8.849  0.141E+02  0.141E+02
  -8.839  0.132E+02  0.132E+02
  -8.829  0.123E+02  0.123E+02
  -8.819  0.114E+02  0.114E+02
  -8.809  0.105E+02  0.105E+02
  -8.799  0.961E+01  0.958E+01
  -8.789  0.870E+01  0.868E+01
  -8.779  0.779E+01  0.777E+01
  -8.769  0.688E+01  0.686E+01
  -8.759  0.597E+01  0.596E+01
  -8.749  0.506E+01  0.505E+01
  -8.739  0.416E+01  0.414E+01
  -8.729  0.338E+01  0.337E+01
  -8.719  0.264E+01  0.264E+01
  -8.709  0.196E+01  0.195E+01
  -8.699  0.306E+01  0.305E+01
  -8.689  0.492E+01  0.491E+01
  -8.679  0.685E+01  0.683E+01
  -8.669  0.883E+01  0.881E+01
  -8.659  0.110E+02  0.109E+02
  -8.649  0.132E+02  0.131E+02
  -8.639  0.878E+01  0.876E+01
  -8.629  0.825E+01  0.823E+01
  -8.619  0.780E+01  0.778E+01
  -8.609  0.736E+01  0.734E+01
  -8.599  0.691E+01  0.689E+01
  -8.589  0.707E+01  0.704E+01
  -8.579  0.751E+01  0.749E+01
  -8.569  0.795E+01  0.793E+01
  -8.559  0.840E+01  0.837E+01
  -8.549  0.884E+01  0.881E+01
  -8.539  0.928E+01  0.926E+01
  -8.529  0.973E+01  0.970E+01
  -8.519  0.102E+02  0.101E+02
  -8.509  0.106E+02  0.106E+02
  -8.499  0.111E+02  0.110E+02
  -8.489  0.115E+02  0.115E+02
  -8.479  0.122E+02  0.121E+02
  -8.469  0.130E+02  0.129E+02
  -8.459  0.138E+02  0.138E+02
  -8.449  0.146E+02  0.146E+02
  -8.439  0.154E+02  0.154E+02
  -8.429  0.163E+02  0.162E+02
  -8.419  0.171E+02  0.170E+02
  -8.409  0.179E+02  0.178E+02
  -8.399  0.187E+02  0.186E+02
  -8.389  0.195E+02  0.195E+02
  -8.379  0.154E+02  0.153E+02
  -8.369  0.153E+02  0.153E+02
  -8.359  0.192E+02  0.191E+02
  -8.349  0.159E+02  0.158E+02
  -8.339  0.149E+02  0.149E+02
  -8.329  0.140E+02  0.139E+02
  -8.319  0.130E+02  0.130E+02
  -8.309  0.121E+02  0.120E+02
  -8.299  0.111E+02  0.111E+02
  -8.289  0.152E+02  0.151E+02
  -8.279  0.308E+02  0.306E+02
  -8.269  0.114E+02  0.114E+02
  -8.259  0.113E+02  0.113E+02
  -8.249  0.113E+02  0.112E+02
  -8.239  0.113E+02  0.112E+02
  -8.229  0.112E+02  0.112E+02
  -8.219  0.112E+02  0.111E+02
  -8.209  0.119E+02  0.118E+02
  -8.199  0.126E+02  0.125E+02
  -8.189  0.133E+02  0.132E+02
  -8.179  0.140E+02  0.140E+02
  -8.169  0.110E+02  0.109E+02
  -8.159  0.113E+02  0.113E+02
  -8.149  0.117E+02  0.116E+02
  -8.139  0.121E+02  0.120E+02
  -8.129  0.124E+02  0.123E+02
  -8.119  0.128E+02  0.127E+02
  -8.109  0.131E+02  0.131E+02
  -8.099  0.135E+02  0.134E+02
  -8.089  0.138E+02  0.138E+02
  -8.079  0.147E+02  0.146E+02
  -8.069  0.155E+02  0.155E+02
  -8.059  0.164E+02  0.163E+02
  -8.049  0.172E+02  0.171E+02
  -8.039  0.180E+02  0.179E+02
  -8.029  0.188E+02  0.187E+02
  -8.019  0.196E+02  0.195E+02
  -8.009  0.201E+02  0.200E+02
  -7.999  0.181E+02  0.180E+02
  -7.989  0.160E+02  0.160E+02
  -7.979  0.342E+02  0.340E+02
  -7.969  0.275E+02  0.274E+02
  -7.959  0.208E+02  0.208E+02
  -7.949  0.146E+02  0.146E+02
  -7.939  0.915E+01  0.911E+01
  -7.929  0.828E+01  0.824E+01
  -7.919  0.756E+01  0.753E+01
  -7.909  0.685E+01  0.682E+01
  -7.899  0.614E+01  0.612E+01
  -7.889  0.543E+01  0.541E+01
  -7.879  0.477E+01  0.475E+01
  -7.869  0.440E+01  0.438E+01
  -7.859  0.131E+02  0.130E+02
  -7.849  0.123E+02  0.122E+02
  -7.839  0.115E+02  0.114E+02
  -7.829  0.107E+02  0.107E+02
  -7.819  0.992E+01  0.989E+01
  -7.809  0.932E+01  0.929E+01
  -7.799  0.890E+01  0.887E+01
  -7.789  0.848E+01  0.845E+01
  -7.779  0.806E+01  0.803E+01
  -7.769  0.764E+01  0.761E+01
  -7.759  0.721E+01  0.719E+01
  -7.749  0.679E+01  0.677E+01
  -7.739  0.657E+01  0.654E+01
  -7.729  0.664E+01  0.662E+01
  -7.719  0.671E+01  0.669E+01
  -7.709  0.679E+01  0.676E+01
  -7.699  0.686E+01  0.684E+01
  -7.689  0.693E+01  0.691E+01
  -7.679  0.701E+01  0.698E+01
  -7.669  0.708E+01  0.705E+01
  -7.659  0.716E+01  0.713E+01
  -7.649  0.792E+01  0.789E+01
  -7.639  0.110E+02  0.110E+02
  -7.629  0.164E+02  0.163E+02
  -7.619  0.289E+02  0.288E+02
  -7.609  0.414E+02  0.412E+02
  -7.599  0.358E+02  0.357E+02
  -7.589  0.995E+01  0.991E+01
  -7.579  0.100E+02  0.100E+02
  -7.569  0.101E+02  0.101E+02
  -7.559  0.102E+02  0.102E+02
  -7.549  0.103E+02  0.103E+02
  -7.539  0.104E+02  0.104E+02
  -7.529  0.993E+01  0.989E+01
  -7.519  0.100E+02  0.999E+01
  -7.509  0.101E+02  0.101E+02
  -7.499  0.102E+02  0.102E+02
  -7.489  0.103E+02  0.103E+02
  -7.479  0.104E+02  0.104E+02
  -7.469  0.105E+02  0.105E+02
  -7.459  0.106E+02  0.106E+02
  -7.449  0.107E+02  0.107E+02
  -7.439  0.108E+02  0.108E+02
  -7.429  0.109E+02  0.109E+02
  -7.419  0.396E+02  0.394E+02
  -7.409  0.333E+02  0.332E+02
  -7.399  0.271E+02  0.271E+02
  -7.389  0.227E+02  0.227E+02
  -7.379  0.192E+02  0.192E+02
  -7.369  0.158E+02  0.157E+02
  -7.359  0.123E+02  0.122E+02
  -7.349  0.103E+02  0.102E+02
  -7.339  0.968E+01  0.965E+01
  -7.329  0.921E+01  0.918E+01
  -7.319  0.874E+01  0.871E+01
  -7.309  0.827E+01  0.825E+01
  -7.299  0.780E+01  0.778E+01
  -7.289  0.770E+01  0.768E+01
  -7.279  0.791E+01  0.788E+01
  -7.269  0.868E+01  0.865E+01
  -7.259  0.912E+01  0.909E+01
  -7.249  0.957E+01  0.953E+01
  -7.239  0.103E+02  0.103E+02
  -7.229  0.108E+02  0.107E+02
  -7.219  0.110E+02  0.109E+02
  -7.209  0.110E+02  0.110E+02
  -7.199  0.111E+02  0.111E+02
  -7.189  0.112E+02  0.112E+02
  -7.179  0.113E+02  0.113E+02
  -7.169  0.114E+02  0.113E+02
  -7.159  0.115E+02  0.114E+02
  -7.149  0.115E+02  0.115E+02
  -7.139  0.116E+02  0.116E+02
  -7.129  0.117E+02  0.117E+02
  -7.119  0.118E+02  0.117E+02
  -7.109  0.119E+02  0.118E+02
  -7.099  0.119E+02  0.119E+02
  -7.089  0.120E+02  0.120E+02
  -7.079  0.121E+02  0.121E+02
  -7.069  0.122E+02  0.121E+02
  -7.059  0.123E+02  0.122E+02
  -7.049  0.123E+02  0.123E+02
  -7.039  0.124E+02  0.124E+02
  -7.029  0.125E+02  0.125E+02
  -7.019  0.145E+02  0.145E+02
  -7.009  0.240E+02  0.239E+02
  -6.999  0.141E+02  0.140E+02
  -6.989  0.190E+02  0.189E+02
  -6.979  0.246E+02  0.246E+02
  -6.969  0.139E+02  0.139E+02
  -6.959  0.130E+02  0.130E+02
  -6.949  0.122E+02  0.122E+02
  -6.939  0.113E+02  0.113E+02
  -6.929  0.105E+02  0.105E+02
  -6.919  0.965E+01  0.962E+01
  -6.909  0.893E+01  0.890E+01
  -6.899  0.849E+01  0.847E+01
  -6.889  0.104E+02  0.104E+02
  -6.879  0.960E+01  0.958E+01
  -6.869  0.882E+01  0.880E+01
  -6.859  0.804E+01  0.802E+01
  -6.849  0.175E+03  0.175E+03
  -6.839  0.124E+02  0.124E+02
  -6.829  0.165E+02  0.165E+02
  -6.819  0.207E+02  0.206E+02
  -6.809  0.103E+02  0.103E+02
  -6.799  0.950E+01  0.947E+01
  -6.789  0.865E+01  0.862E+01
  -6.779  0.780E+01  0.778E+01
  -6.769  0.696E+01  0.694E+01
  -6.759  0.611E+01  0.609E+01
  -6.749  0.527E+01  0.525E+01
  -6.739  0.442E+01  0.441E+01
  -6.729  0.358E+01  0.357E+01
  -6.719  0.288E+01  0.287E+01
  -6.709  0.262E+01  0.261E+01
  -6.699  0.305E+01  0.304E+01
  -6.689  0.363E+01  0.362E+01
  -6.679  0.465E+01  0.464E+01
  -6.669  0.630E+01  0.629E+01
  -6.659  0.877E+01  0.874E+01
  -6.649  0.114E+02  0.113E+02
  -6.639  0.139E+02  0.139E+02
  -6.629  0.165E+02  0.165E+02
  -6.619  0.191E+02  0.190E+02
  -6.609  0.107E+02  0.107E+02
  -6.599  0.105E+02  0.105E+02
  -6.589  0.104E+02  0.104E+02
  -6.579  0.102E+02  0.102E+02
  -6.569  0.101E+02  0.101E+02
  -6.559  0.993E+01  0.990E+01
  -6.549  0.978E+01  0.975E+01
  -6.539  0.129E+02  0.129E+02
  -6.529  0.190E+02  0.190E+02
  -6.519  0.252E+02  0.251E+02
  -6.509  0.895E+01  0.893E+01
  -6.499  0.910E+01  0.907E+01
  -6.489  0.926E+01  0.924E+01
  -6.479  0.946E+01  0.944E+01
  -6.469  0.971E+01  0.968E+01
  -6.459  0.996E+01  0.993E+01
  -6.449  0.102E+02  0.102E+02
  -6.439  0.105E+02  0.104E+02
  -6.429  0.107E+02  0.107E+02
  -6.419  0.109E+02  0.109E+02
  -6.409  0.112E+02  0.112E+02
  -6.399  0.114E+02  0.114E+02
  -6.389  0.117E+02  0.117E+02
  -6.379  0.122E+02  0.122E+02
  -6.369  0.132E+02  0.132E+02
  -6.359  0.142E+02  0.142E+02
  -6.349  0.152E+02  0.152E+02
  -6.339  0.162E+02  0.162E+02
  -6.329  0.173E+02  0.172E+02
  -6.319  0.557E+02  0.556E+02
  -6.309  0.343E+02  0.343E+02
  -6.299  0.139E+02  0.139E+02
  -6.289  0.909E+01  0.906E+01
  -6.279  0.133E+02  0.132E+02
  -6.269  0.178E+02  0.177E+02
  -6.259  0.223E+02  0.223E+02
  -6.249  0.269E+02  0.268E+02
  -6.239  0.111E+02  0.110E+02
  -6.229  0.113E+02  0.113E+02
  -6.219  0.116E+02  0.115E+02
  -6.209  0.119E+02  0.118E+02
  -6.199  0.121E+02  0.121E+02
  -6.189  0.128E+02  0.127E+02
  -6.179  0.130E+02  0.130E+02
  -6.169  0.133E+02  0.132E+02
  -6.159  0.140E+02  0.139E+02
  -6.149  0.142E+02  0.141E+02
  -6.139  0.147E+02  0.146E+02
  -6.129  0.154E+02  0.153E+02
  -6.119  0.164E+02  0.163E+02
  -6.109  0.170E+02  0.169E+02
  -6.099  0.173E+02  0.172E+02
  -6.089  0.180E+02  0.179E+02
  -6.079  0.183E+02  0.182E+02
  -6.069  0.185E+02  0.184E+02
  -6.059  0.189E+02  0.188E+02
  -6.049  0.199E+02  0.198E+02
  -6.039  0.209E+02  0.207E+02
  -6.029  0.214E+02  0.212E+02
  -6.019  0.217E+02  0.215E+02
  -6.009  0.220E+02  0.219E+02
  -5.999  0.224E+02  0.222E+02
  -5.989  0.227E+02  0.226E+02
  -5.979  0.225E+02  0.223E+02
  -5.969  0.212E+02  0.211E+02
  -5.959  0.201E+02  0.199E+02
  -5.949  0.191E+02  0.189E+02
  -5.939  0.181E+02  0.180E+02
  -5.929  0.172E+02  0.171E+02
  -5.919  0.166E+02  0.165E+02
  -5.909  0.405E+02  0.403E+02
  -5.899  0.160E+02  0.160E+02
  -5.889  0.163E+02  0.163E+02
  -5.879  0.166E+02  0.166E+02
  -5.869  0.167E+02  0.166E+02
  -5.859  0.168E+02  0.167E+02
  -5.849  0.169E+02  0.169E+02
  -5.839  0.170E+02  0.169E+02
  -5.829  0.171E+02  0.170E+02
  -5.819  0.173E+02  0.173E+02
  -5.809  0.178E+02  0.177E+02
  -5.799  0.182E+02  0.181E+02
  -5.789  0.186E+02  0.185E+02
  -5.779  0.190E+02  0.189E+02
  -5.769  0.194E+02  0.194E+02
  -5.759  0.198E+02  0.198E+02
  -5.749  0.203E+02  0.202E+02
  -5.739  0.207E+02  0.206E+02
  -5.729  0.186E+02  0.186E+02
  -5.719  0.153E+02  0.152E+02
  -5.709  0.122E+02  0.122E+02
  -5.699  0.958E+01  0.956E+01
  -5.689  0.106E+02  0.105E+02
  -5.679  0.115E+02  0.115E+02
  -5.669  0.119E+02  0.119E+02
  -5.659  0.121E+02  0.120E+02
  -5.649  0.120E+02  0.119E+02
  -5.639  0.119E+02  0.119E+02
  -5.629  0.118E+02  0.118E+02
  -5.619  0.117E+02  0.117E+02
  -5.609  0.117E+02  0.116E+02
  -5.599  0.116E+02  0.115E+02
  -5.589  0.115E+02  0.115E+02
  -5.579  0.114E+02  0.114E+02
  -5.569  0.892E+01  0.890E+01
  -5.559  0.884E+01  0.882E+01
  -5.549  0.876E+01  0.874E+01
  -5.539  0.868E+01  0.866E+01
  -5.529  0.860E+01  0.858E+01
  -5.519  0.852E+01  0.850E+01
  -5.509  0.844E+01  0.842E+01
  -5.499  0.836E+01  0.834E+01
  -5.489  0.828E+01  0.826E+01
  -5.479  0.820E+01  0.818E+01
  -5.469  0.812E+01  0.810E+01
  -5.459  0.804E+01  0.802E+01
  -5.449  0.796E+01  0.794E+01
  -5.439  0.788E+01  0.786E+01
  -5.429  0.780E+01  0.778E+01
  -5.419  0.772E+01  0.770E+01
  -5.409  0.764E+01  0.762E+01
  -5.399  0.205E+02  0.204E+02
  -5.389  0.826E+01  0.824E+01
  -5.379  0.592E+01  0.590E+01
  -5.369  0.595E+01  0.594E+01
  -5.359  0.621E+01  0.620E+01
  -5.349  0.647E+01  0.645E+01
  -5.339  0.673E+01  0.671E+01
  -5.329  0.698E+01  0.696E+01
  -5.319  0.724E+01  0.722E+01
  -5.309  0.750E+01  0.747E+01
  -5.299  0.776E+01  0.773E+01
  -5.289  0.801E+01  0.798E+01
  -5.279  0.827E+01  0.824E+01
  -5.269  0.113E+02  0.112E+02
  -5.259  0.227E+02  0.225E+02
  -5.249  0.341E+02  0.339E+02
  -5.239  0.401E+02  0.399E+02
  -5.229  0.422E+02  0.419E+02
  -5.219  0.438E+02  0.435E+02
  -5.209  0.393E+02  0.390E+02
  -5.199  0.347E+02  0.346E+02
  -5.189  0.357E+02  0.355E+02
  -5.179  0.503E+02  0.500E+02
  -5.169  0.513E+02  0.511E+02
  -5.159  0.492E+02  0.489E+02
  -5.149  0.314E+02  0.312E+02
  -5.139  0.303E+02  0.302E+02
  -5.129  0.284E+02  0.282E+02
  -5.119  0.263E+02  0.261E+02
  -5.109  0.242E+02  0.240E+02
  -5.099  0.221E+02  0.219E+02
  -5.089  0.210E+02  0.209E+02
  -5.079  0.201E+02  0.200E+02
  -5.069  0.184E+02  0.183E+02
  -5.059  0.168E+02  0.167E+02
  -5.049  0.154E+02  0.153E+02
  -5.039  0.150E+02  0.149E+02
  -5.029  0.147E+02  0.146E+02
  -5.019  0.143E+02  0.142E+02
  -5.009  0.165E+02  0.164E+02
  -4.999  0.192E+02  0.191E+02
  -4.989  0.220E+02  0.219E+02
  -4.979  0.259E+02  0.257E+02
  -4.969  0.306E+02  0.305E+02
  -4.959  0.356E+02  0.354E+02
  -4.949  0.274E+02  0.273E+02
  -4.939  0.508E+02  0.505E+02
  -4.929  0.471E+02  0.469E+02
  -4.919  0.406E+02  0.405E+02
  -4.909  0.310E+02  0.309E+02
  -4.899  0.176E+02  0.176E+02
  -4.889  0.414E+02  0.413E+02
  -4.879  0.217E+02  0.216E+02
  -4.869  0.102E+02  0.102E+02
  -4.859  0.108E+02  0.107E+02
  -4.849  0.155E+02  0.154E+02
  -4.839  0.208E+02  0.207E+02
  -4.829  0.262E+02  0.261E+02
  -4.819  0.316E+02  0.314E+02
  -4.809  0.388E+02  0.386E+02
  -4.799  0.322E+02  0.321E+02
  -4.789  0.292E+02  0.291E+02
  -4.779  0.320E+02  0.319E+02
  -4.769  0.349E+02  0.347E+02
  -4.759  0.187E+02  0.186E+02
  -4.749  0.177E+02  0.177E+02
  -4.739  0.168E+02  0.167E+02
  -4.729  0.161E+02  0.160E+02
  -4.719  0.157E+02  0.156E+02
  -4.709  0.153E+02  0.153E+02
  -4.699  0.155E+02  0.154E+02
  -4.689  0.237E+02  0.236E+02
  -4.679  0.274E+02  0.273E+02
  -4.669  0.422E+02  0.420E+02
  -4.659  0.354E+02  0.352E+02
  -4.649  0.285E+02  0.284E+02
  -4.639  0.219E+02  0.219E+02
  -4.629  0.158E+02  0.158E+02
  -4.619  0.241E+02  0.240E+02
  -4.609  0.503E+02  0.501E+02
  -4.599  0.419E+02  0.417E+02
  -4.589  0.228E+02  0.227E+02
  -4.579  0.236E+02  0.235E+02
  -4.569  0.244E+02  0.243E+02
  -4.559  0.265E+02  0.264E+02
  -4.549  0.287E+02  0.286E+02
  -4.539  0.310E+02  0.309E+02
  -4.529  0.333E+02  0.331E+02
  -4.519  0.303E+02  0.301E+02
  -4.509  0.275E+02  0.273E+02
  -4.499  0.318E+02  0.316E+02
  -4.489  0.362E+02  0.359E+02
  -4.479  0.683E+02  0.678E+02
  -4.469  0.342E+02  0.341E+02
  -4.459  0.107E+02  0.107E+02
  -4.449  0.109E+02  0.109E+02
  -4.439  0.146E+02  0.146E+02
  -4.429  0.137E+02  0.137E+02
  -4.419  0.129E+02  0.128E+02
  -4.409  0.120E+02  0.120E+02
  -4.399  0.111E+02  0.111E+02
  -4.389  0.117E+02  0.116E+02
  -4.379  0.129E+02  0.129E+02
  -4.369  0.142E+02  0.141E+02
  -4.359  0.200E+02  0.199E+02
  -4.349  0.280E+02  0.279E+02
  -4.339  0.382E+02  0.380E+02
  -4.329  0.438E+02  0.436E+02
  -4.319  0.428E+02  0.426E+02
  -4.309  0.365E+02  0.363E+02
  -4.299  0.359E+02  0.357E+02
  -4.289  0.348E+02  0.346E+02
  -4.279  0.338E+02  0.336E+02
  -4.269  0.327E+02  0.325E+02
  -4.259  0.291E+02  0.290E+02
  -4.249  0.129E+02  0.128E+02
  -4.239  0.131E+02  0.131E+02
  -4.229  0.200E+02  0.199E+02
  -4.219  0.233E+02  0.232E+02
  -4.209  0.268E+02  0.267E+02
  -4.199  0.279E+02  0.277E+02
  -4.189  0.280E+02  0.279E+02
  -4.179  0.281E+02  0.280E+02
  -4.169  0.282E+02  0.281E+02
  -4.159  0.284E+02  0.282E+02
  -4.149  0.285E+02  0.283E+02
  -4.139  0.284E+02  0.283E+02
  -4.129  0.286E+02  0.285E+02
  -4.119  0.825E+02  0.823E+02
  -4.109  0.189E+02  0.188E+02
  -4.099  0.147E+02  0.146E+02
  -4.089  0.147E+02  0.146E+02
  -4.079  0.146E+02  0.146E+02
  -4.069  0.136E+02  0.135E+02
  -4.059  0.138E+02  0.138E+02
  -4.049  0.141E+02  0.140E+02
  -4.039  0.143E+02  0.143E+02
  -4.029  0.146E+02  0.145E+02
  -4.019  0.148E+02  0.148E+02
  -4.009  0.151E+02  0.150E+02
  -3.999  0.153E+02  0.152E+02
  -3.989  0.195E+02  0.194E+02
  -3.979  0.178E+02  0.177E+02
  -3.969  0.161E+02  0.160E+02
  -3.959  0.254E+02  0.253E+02
  -3.949  0.261E+02  0.260E+02
  -3.939  0.394E+02  0.392E+02
  -3.929  0.397E+02  0.396E+02
  -3.919  0.372E+02  0.370E+02
  -3.909  0.346E+02  0.345E+02
  -3.899  0.323E+02  0.321E+02
  -3.889  0.308E+02  0.307E+02
  -3.879  0.293E+02  0.291E+02
  -3.869  0.277E+02  0.276E+02
  -3.859  0.261E+02  0.260E+02
  -3.849  0.243E+02  0.241E+02
  -3.839  0.201E+02  0.200E+02
  -3.829  0.152E+02  0.151E+02
  -3.819  0.110E+02  0.109E+02
  -3.809  0.549E+01  0.545E+01
  -3.799  0.722E+01  0.718E+01
  -3.789  0.996E+01  0.990E+01
  -3.779  0.133E+02  0.132E+02
  -3.769  0.166E+02  0.165E+02
  -3.759  0.199E+02  0.198E+02
  -3.749  0.234E+02  0.233E+02
  -3.739  0.336E+02  0.334E+02
  -3.729  0.215E+02  0.214E+02
  -3.719  0.174E+02  0.174E+02
  -3.709  0.169E+02  0.169E+02
  -3.699  0.218E+02  0.217E+02
  -3.689  0.441E+02  0.440E+02
  -3.679  0.174E+02  0.173E+02
  -3.669  0.184E+02  0.184E+02
  -3.659  0.197E+02  0.196E+02
  -3.649  0.210E+02  0.209E+02
  -3.639  0.223E+02  0.222E+02
  -3.629  0.134E+02  0.134E+02
  -3.619  0.135E+02  0.135E+02
  -3.609  0.144E+02  0.143E+02
  -3.599  0.152E+02  0.152E+02
  -3.589  0.161E+02  0.160E+02
  -3.579  0.169E+02  0.169E+02
  -3.569  0.178E+02  0.177E+02
  -3.559  0.187E+02  0.186E+02
  -3.549  0.196E+02  0.195E+02
  -3.539  0.220E+02  0.219E+02
  -3.529  0.243E+02  0.242E+02
  -3.519  0.274E+02  0.273E+02
  -3.509  0.325E+02  0.324E+02
  -3.499  0.376E+02  0.375E+02
  -3.489  0.294E+02  0.293E+02
  -3.479  0.321E+02  0.319E+02
  -3.469  0.207E+02  0.206E+02
  -3.459  0.204E+02  0.203E+02
  -3.449  0.201E+02  0.201E+02
  -3.439  0.199E+02  0.198E+02
  -3.429  0.196E+02  0.195E+02
  -3.419  0.194E+02  0.193E+02
  -3.409  0.191E+02  0.190E+02
  -3.399  0.188E+02  0.188E+02
  -3.389  0.186E+02  0.185E+02
  -3.379  0.183E+02  0.182E+02
  -3.369  0.187E+02  0.186E+02
  -3.359  0.200E+02  0.200E+02
  -3.349  0.220E+02  0.219E+02
  -3.339  0.224E+02  0.223E+02
  -3.329  0.225E+02  0.224E+02
  -3.319  0.227E+02  0.226E+02
  -3.309  0.228E+02  0.227E+02
  -3.299  0.230E+02  0.229E+02
  -3.289  0.231E+02  0.230E+02
  -3.279  0.233E+02  0.232E+02
  -3.269  0.235E+02  0.234E+02
  -3.259  0.230E+02  0.229E+02
  -3.249  0.210E+02  0.209E+02
  -3.239  0.190E+02  0.189E+02
  -3.229  0.171E+02  0.170E+02
  -3.219  0.169E+02  0.168E+02
  -3.209  0.172E+02  0.171E+02
  -3.199  0.174E+02  0.173E+02
  -3.189  0.177E+02  0.176E+02
  -3.179  0.179E+02  0.179E+02
  -3.169  0.182E+02  0.182E+02
  -3.159  0.185E+02  0.185E+02
  -3.149  0.188E+02  0.188E+02
  -3.139  0.188E+02  0.187E+02
  -3.129  0.190E+02  0.190E+02
  -3.119  0.194E+02  0.194E+02
  -3.109  0.200E+02  0.199E+02
  -3.099  0.205E+02  0.204E+02
  -3.089  0.210E+02  0.209E+02
  -3.079  0.215E+02  0.214E+02
  -3.069  0.220E+02  0.220E+02
  -3.059  0.221E+02  0.221E+02
  -3.049  0.221E+02  0.220E+02
  -3.039  0.213E+02  0.212E+02
  -3.029  0.241E+02  0.241E+02
  -3.019  0.372E+02  0.371E+02
  -3.009  0.197E+02  0.196E+02
  -2.999  0.194E+02  0.194E+02
  -2.989  0.192E+02  0.191E+02
  -2.979  0.190E+02  0.189E+02
  -2.969  0.187E+02  0.186E+02
  -2.959  0.185E+02  0.184E+02
  -2.949  0.204E+02  0.204E+02
  -2.939  0.202E+02  0.201E+02
  -2.929  0.200E+02  0.200E+02
  -2.919  0.199E+02  0.198E+02
  -2.909  0.255E+02  0.254E+02
  -2.899  0.242E+02  0.241E+02
  -2.889  0.204E+02  0.203E+02
  -2.879  0.184E+02  0.183E+02
  -2.869  0.141E+02  0.140E+02
  -2.859  0.115E+02  0.114E+02
  -2.849  0.121E+02  0.121E+02
  -2.839  0.128E+02  0.127E+02
  -2.829  0.129E+02  0.129E+02
  -2.819  0.126E+02  0.126E+02
  -2.809  0.124E+02  0.123E+02
  -2.799  0.136E+02  0.135E+02
  -2.789  0.376E+02  0.375E+02
  -2.779  0.144E+02  0.144E+02
  -2.769  0.173E+02  0.173E+02
  -2.759  0.201E+02  0.200E+02
  -2.749  0.271E+02  0.270E+02
  -2.739  0.274E+02  0.273E+02
  -2.729  0.278E+02  0.277E+02
  -2.719  0.282E+02  0.281E+02
  -2.709  0.784E+02  0.779E+02
  -2.699  0.413E+02  0.411E+02
  -2.689  0.374E+02  0.372E+02
  -2.679  0.419E+02  0.417E+02
  -2.669  0.498E+02  0.495E+02
  -2.659  0.670E+02  0.666E+02
  -2.649  0.715E+02  0.712E+02
  -2.639  0.617E+02  0.613E+02
  -2.629  0.412E+02  0.409E+02
  -2.619  0.395E+02  0.393E+02
  -2.609  0.200E+02  0.199E+02
  -2.599  0.179E+02  0.178E+02
  -2.589  0.207E+02  0.206E+02
  -2.579  0.196E+02  0.195E+02
  -2.569  0.184E+02  0.184E+02
  -2.559  0.421E+02  0.420E+02
  -2.549  0.101E+02  0.101E+02
  -2.539  0.273E+02  0.273E+02
  -2.529  0.214E+02  0.214E+02
  -2.519  0.194E+02  0.193E+02
  -2.509  0.297E+02  0.296E+02
  -2.499  0.276E+02  0.275E+02
  -2.489  0.255E+02  0.254E+02
  -2.479  0.234E+02  0.233E+02
  -2.469  0.217E+02  0.216E+02
  -2.459  0.200E+02  0.199E+02
  -2.449  0.183E+02  0.182E+02
  -2.439  0.167E+02  0.167E+02
  -2.429  0.170E+02  0.169E+02
  -2.419  0.170E+02  0.170E+02
  -2.409  0.183E+02  0.182E+02
  -2.399  0.187E+02  0.187E+02
  -2.389  0.310E+02  0.308E+02
  -2.379  0.881E+02  0.879E+02
  -2.369  0.221E+02  0.221E+02
  -2.359  0.194E+02  0.194E+02
  -2.349  0.485E+02  0.483E+02
  -2.339  0.295E+02  0.294E+02
  -2.329  0.202E+02  0.201E+02
  -2.319  0.178E+02  0.177E+02
  -2.309  0.187E+02  0.186E+02
  -2.299  0.182E+02  0.181E+02
  -2.289  0.157E+02  0.156E+02
  -2.279  0.153E+02  0.153E+02
  -2.269  0.152E+02  0.151E+02
  -2.259  0.139E+02  0.139E+02
  -2.249  0.136E+02  0.136E+02
  -2.239  0.142E+02  0.141E+02
  -2.229  0.147E+02  0.147E+02
  -2.219  0.152E+02  0.152E+02
  -2.209  0.158E+02  0.157E+02
  -2.199  0.163E+02  0.162E+02
  -2.189  0.168E+02  0.168E+02
  -2.179  0.363E+02  0.362E+02
  -2.169  0.109E+02  0.109E+02
  -2.159  0.175E+02  0.175E+02
  -2.149  0.306E+02  0.305E+02
  -2.139  0.440E+02  0.439E+02
  -2.129  0.486E+02  0.484E+02
  -2.119  0.195E+02  0.195E+02
  -2.109  0.183E+02  0.183E+02
  -2.099  0.282E+02  0.281E+02
  -2.089  0.102E+02  0.102E+02
  -2.079  0.102E+02  0.102E+02
  -2.069  0.102E+02  0.101E+02
  -2.059  0.101E+02  0.101E+02
  -2.049  0.156E+02  0.156E+02
  -2.039  0.146E+02  0.145E+02
  -2.029  0.135E+02  0.135E+02
  -2.019  0.128E+02  0.127E+02
  -2.009  0.118E+02  0.117E+02
  -1.999  0.107E+02  0.107E+02
  -1.989  0.974E+01  0.971E+01
  -1.979  0.873E+01  0.870E+01
  -1.969  0.805E+01  0.803E+01
  -1.959  0.794E+01  0.792E+01
  -1.949  0.784E+01  0.781E+01
  -1.939  0.773E+01  0.770E+01
  -1.929  0.762E+01  0.760E+01
  -1.919  0.751E+01  0.749E+01
  -1.909  0.993E+01  0.990E+01
  -1.899  0.127E+02  0.127E+02
  -1.889  0.156E+02  0.155E+02
  -1.879  0.186E+02  0.186E+02
  -1.869  0.256E+02  0.255E+02
  -1.859  0.304E+02  0.303E+02
  -1.849  0.353E+02  0.352E+02
  -1.839  0.111E+03  0.111E+03
  -1.829  0.182E+02  0.181E+02
  -1.819  0.158E+02  0.158E+02
  -1.809  0.132E+02  0.131E+02
  -1.799  0.106E+02  0.106E+02
  -1.789  0.102E+02  0.102E+02
  -1.779  0.986E+01  0.983E+01
  -1.769  0.950E+01  0.947E+01
  -1.759  0.914E+01  0.911E+01
  -1.749  0.877E+01  0.874E+01
  -1.739  0.841E+01  0.838E+01
  -1.729  0.805E+01  0.802E+01
  -1.719  0.769E+01  0.766E+01
  -1.709  0.732E+01  0.730E+01
  -1.699  0.743E+01  0.741E+01
  -1.689  0.764E+01  0.761E+01
  -1.679  0.785E+01  0.782E+01
  -1.669  0.806E+01  0.803E+01
  -1.659  0.827E+01  0.824E+01
  -1.649  0.847E+01  0.845E+01
  -1.639  0.679E+01  0.677E+01
  -1.629  0.716E+01  0.714E+01
  -1.619  0.124E+02  0.123E+02
  -1.609  0.176E+02  0.175E+02
  -1.599  0.228E+02  0.227E+02
  -1.589  0.294E+02  0.293E+02
  -1.579  0.399E+02  0.398E+02
  -1.569  0.127E+02  0.127E+02
  -1.559  0.839E+01  0.837E+01
  -1.549  0.316E+02  0.315E+02
  -1.539  0.165E+02  0.164E+02
  -1.529  0.153E+02  0.152E+02
  -1.519  0.140E+02  0.140E+02
  -1.509  0.128E+02  0.128E+02
  -1.499  0.116E+02  0.116E+02
  -1.489  0.104E+02  0.104E+02
  -1.479  0.917E+01  0.914E+01
  -1.469  0.795E+01  0.793E+01
  -1.459  0.698E+01  0.696E+01
  -1.449  0.734E+01  0.732E+01
  -1.439  0.968E+01  0.965E+01
  -1.429  0.952E+01  0.949E+01
  -1.419  0.936E+01  0.934E+01
  -1.409  0.921E+01  0.918E+01
  -1.399  0.905E+01  0.903E+01
  -1.389  0.889E+01  0.887E+01
  -1.379  0.874E+01  0.871E+01
  -1.369  0.913E+01  0.911E+01
  -1.359  0.966E+01  0.963E+01
  -1.349  0.102E+02  0.102E+02
  -1.339  0.107E+02  0.107E+02
  -1.329  0.112E+02  0.112E+02
  -1.319  0.626E+01  0.624E+01
  -1.309  0.624E+01  0.623E+01
  -1.299  0.623E+01  0.621E+01
  -1.289  0.621E+01  0.620E+01
  -1.279  0.620E+01  0.618E+01
  -1.269  0.618E+01  0.617E+01
  -1.259  0.617E+01  0.615E+01
  -1.249  0.615E+01  0.613E+01
  -1.239  0.605E+01  0.604E+01
  -1.229  0.592E+01  0.590E+01
  -1.219  0.576E+01  0.574E+01
  -1.209  0.560E+01  0.559E+01
  -1.199  0.545E+01  0.543E+01
  -1.189  0.529E+01  0.528E+01
  -1.179  0.513E+01  0.512E+01
  -1.169  0.498E+01  0.496E+01
  -1.159  0.482E+01  0.481E+01
  -1.149  0.466E+01  0.465E+01
  -1.139  0.451E+01  0.449E+01
  -1.129  0.435E+01  0.434E+01
  -1.119  0.419E+01  0.418E+01
  -1.109  0.403E+01  0.402E+01
  -1.099  0.393E+01  0.392E+01
  -1.089  0.390E+01  0.388E+01
  -1.079  0.386E+01  0.385E+01
  -1.069  0.382E+01  0.381E+01
  -1.059  0.378E+01  0.377E+01
  -1.049  0.374E+01  0.373E+01
  -1.039  0.371E+01  0.370E+01
  -1.029  0.367E+01  0.366E+01
  -1.019  0.363E+01  0.362E+01
  -1.009  0.359E+01  0.358E+01
  -0.999  0.356E+01  0.355E+01
  -0.989  0.352E+01  0.351E+01
  -0.979  0.348E+01  0.347E+01
  -0.969  0.344E+01  0.343E+01
  -0.959  0.340E+01  0.339E+01
  -0.949  0.276E+01  0.275E+01
  -0.939  0.264E+01  0.263E+01
  -0.929  0.252E+01  0.251E+01
  -0.919  0.240E+01  0.239E+01
  -0.909  0.228E+01  0.227E+01
  -0.899  0.216E+01  0.215E+01
  -0.889  0.204E+01  0.203E+01
  -0.879  0.192E+01  0.191E+01
  -0.869  0.179E+01  0.179E+01
  -0.859  0.167E+01  0.167E+01
  -0.849  0.155E+01  0.155E+01
  -0.839  0.143E+01  0.143E+01
  -0.829  0.131E+01  0.131E+01
  -0.819  0.119E+01  0.119E+01
  -0.809  0.107E+01  0.107E+01
  -0.799  0.950E+00  0.947E+00
  -0.789  0.829E+00  0.827E+00
  -0.779  0.709E+00  0.706E+00
  -0.769  0.588E+00  0.586E+00
  -0.759  0.467E+00  0.466E+00
  -0.749  0.347E+00  0.346E+00
  -0.739  0.226E+00  0.225E+00
  -0.729  0.105E+00  0.105E+00
  -0.719  0.000E+00  0.000E+00
  -0.709  0.000E+00  0.000E+00
  -0.699  0.000E+00  0.000E+00
  -0.689  0.000E+00  0.000E+00
  -0.679  0.000E+00  0.000E+00
  -0.669  0.000E+00  0.000E+00
  -0.659  0.000E+00  0.000E+00
  -0.649  0.000E+00  0.000E+00
  -0.639  0.000E+00  0.000E+00
  -0.629  0.000E+00  0.000E+00
  -0.619  0.176E-01  0.175E-01
  -0.609  0.107E+00  0.106E+00
  -0.599  0.196E+00  0.195E+00
  -0.589  0.323E+00  0.322E+00
  -0.579  0.511E+00  0.509E+00
  -0.569  0.709E+00  0.707E+00
  -0.559  0.910E+00  0.907E+00
  -0.549  0.111E+01  0.111E+01
  -0.539  0.131E+01  0.131E+01
  -0.529  0.151E+01  0.151E+01
  -0.519  0.171E+01  0.171E+01
  -0.509  0.191E+01  0.191E+01
  -0.499  0.211E+01  0.211E+01
  -0.489  0.232E+01  0.231E+01
  -0.479  0.252E+01  0.251E+01
  -0.469  0.272E+01  0.270E+01
  -0.459  0.292E+01  0.290E+01
  -0.449  0.312E+01  0.310E+01
  -0.439  0.332E+01  0.330E+01
  -0.429  0.352E+01  0.350E+01
  -0.419  0.695E+01  0.692E+01
  -0.409  0.706E+01  0.703E+01
  -0.399  0.767E+01  0.763E+01
  -0.389  0.784E+01  0.780E+01
  -0.379  0.801E+01  0.797E+01
  -0.369  0.818E+01  0.814E+01
  -0.359  0.951E+01  0.945E+01
  -0.349  0.182E+02  0.181E+02
  -0.339  0.310E+02  0.309E+02
  -0.329  0.439E+02  0.436E+02
  -0.319  0.235E+02  0.234E+02
  -0.309  0.229E+02  0.228E+02
  -0.299  0.223E+02  0.222E+02
  -0.289  0.141E+02  0.140E+02
  -0.279  0.470E+01  0.467E+01
  -0.269  0.487E+01  0.484E+01
  -0.259  0.192E+02  0.191E+02
  -0.249  0.215E+02  0.214E+02
  -0.239  0.255E+02  0.253E+02
  -0.229  0.571E+02  0.567E+02
  -0.219  0.469E+00  0.464E+00
  -0.209  0.482E+00  0.477E+00
  -0.199  0.495E+00  0.490E+00
  -0.189  0.509E+00  0.503E+00
  -0.179  0.522E+00  0.516E+00
  -0.169  0.535E+00  0.529E+00
  -0.159  0.548E+00  0.542E+00
  -0.149  0.561E+00  0.555E+00
  -0.139  0.574E+00  0.568E+00
  -0.129  0.587E+00  0.581E+00
  -0.119  0.600E+00  0.594E+00
  -0.109  0.220E+01  0.218E+01
  -0.099  0.439E+01  0.435E+01
  -0.089  0.116E+02  0.114E+02
  -0.079  0.256E+02  0.253E+02
  -0.069  0.581E+02  0.575E+02
  -0.059  0.122E+03  0.120E+03
  -0.049  0.331E+02  0.327E+02
  -0.039  0.297E+02  0.294E+02
  -0.029  0.286E+02  0.283E+02
  -0.019  0.391E+02  0.388E+02
  -0.009  0.355E+02  0.352E+02
   0.001  0.309E+02  0.306E+02
   0.011  0.276E+02  0.274E+02
   0.021  0.244E+02  0.242E+02
   0.031  0.196E+02  0.194E+02
   0.041  0.179E+02  0.177E+02
   0.051  0.208E+02  0.206E+02
   0.061  0.319E+02  0.317E+02
   0.071  0.288E+02  0.286E+02
   0.081  0.516E+01  0.512E+01
   0.091  0.790E+00  0.782E+00
   0.101  0.800E+00  0.791E+00
   0.111  0.809E+00  0.800E+00
   0.121  0.819E+00  0.810E+00
   0.131  0.829E+00  0.819E+00
   0.141  0.838E+00  0.829E+00
   0.151  0.848E+00  0.838E+00
   0.161  0.857E+00  0.847E+00
   0.171  0.867E+00  0.857E+00
   0.181  0.876E+00  0.866E+00
   0.191  0.886E+00  0.875E+00
   0.201  0.896E+00  0.885E+00
   0.211  0.905E+00  0.894E+00
   0.221  0.915E+00  0.904E+00
   0.231  0.924E+00  0.913E+00
   0.241  0.934E+00  0.922E+00
   0.251  0.944E+00  0.932E+00
   0.261  0.953E+00  0.941E+00
   0.271  0.963E+00  0.950E+00
   0.281  0.972E+00  0.959E+00
   0.291  0.982E+00  0.969E+00
   0.301  0.991E+00  0.978E+00
   0.311  0.100E+01  0.987E+00
   0.321  0.101E+01  0.997E+00
   0.331  0.102E+01  0.101E+01
   0.341  0.103E+01  0.102E+01
   0.351  0.104E+01  0.102E+01
   0.361  0.105E+01  0.103E+01
   0.371  0.106E+01  0.104E+01
   0.381  0.196E+01  0.192E+01
   0.391  0.598E+01  0.585E+01
   0.401  0.100E+02  0.979E+01
   0.411  0.383E+01  0.376E+01
   0.421  0.413E+01  0.405E+01
   0.431  0.443E+01  0.434E+01
   0.441  0.509E+01  0.499E+01
   0.451  0.576E+01  0.565E+01
   0.461  0.756E+01  0.743E+01
   0.471  0.126E+02  0.124E+02
   0.481  0.181E+02  0.179E+02
   0.491  0.236E+02  0.234E+02
   0.501  0.292E+02  0.288E+02
   0.511  0.347E+02  0.343E+02
   0.521  0.243E+02  0.240E+02
   0.531  0.246E+02  0.242E+02
   0.541  0.252E+02  0.247E+02
   0.551  0.227E+02  0.222E+02
   0.561  0.171E+02  0.167E+02
   0.571  0.128E+02  0.126E+02
   0.581  0.135E+02  0.133E+02
   0.591  0.142E+02  0.140E+02
   0.601  0.154E+02  0.152E+02
   0.611  0.166E+02  0.164E+02
   0.621  0.168E+02  0.165E+02
   0.631  0.148E+02  0.146E+02
   0.641  0.156E+02  0.154E+02
   0.651  0.166E+02  0.164E+02
   0.661  0.166E+02  0.163E+02
   0.671  0.166E+02  0.163E+02
   0.681  0.165E+02  0.162E+02
   0.691  0.165E+02  0.162E+02
   0.701  0.165E+02  0.162E+02
   0.711  0.167E+02  0.164E+02
   0.721  0.169E+02  0.166E+02
   0.731  0.171E+02  0.168E+02
   0.741  0.174E+02  0.170E+02
   0.751  0.221E+02  0.217E+02
   0.761  0.215E+02  0.211E+02
   0.771  0.209E+02  0.205E+02
   0.781  0.203E+02  0.199E+02
   0.791  0.196E+02  0.192E+02
   0.801  0.182E+02  0.178E+02
   0.811  0.168E+02  0.165E+02
   0.821  0.170E+02  0.167E+02
   0.831  0.272E+02  0.267E+02
   0.841  0.245E+02  0.241E+02
   0.851  0.219E+02  0.215E+02
   0.861  0.193E+02  0.189E+02
   0.871  0.231E+02  0.226E+02
   0.881  0.254E+02  0.249E+02
   0.891  0.288E+02  0.282E+02
   0.901  0.233E+02  0.228E+02
   0.911  0.272E+02  0.267E+02
   0.921  0.303E+02  0.297E+02
   0.931  0.311E+02  0.306E+02
   0.941  0.292E+02  0.287E+02
   0.951  0.273E+02  0.268E+02
   0.961  0.253E+02  0.249E+02
   0.971  0.192E+02  0.188E+02
   0.981  0.189E+02  0.185E+02
   0.991  0.154E+02  0.151E+02
   1.001  0.177E+02  0.174E+02
   1.011  0.201E+02  0.197E+02
   1.021  0.224E+02  0.219E+02
   1.031  0.727E+02  0.710E+02
   1.041  0.816E+01  0.796E+01
   1.051  0.216E+02  0.211E+02
   1.061  0.195E+02  0.190E+02
   1.071  0.173E+02  0.169E+02
   1.081  0.151E+02  0.148E+02
   1.091  0.132E+02  0.128E+02
   1.101  0.116E+02  0.113E+02
   1.111  0.362E+02  0.353E+02
   1.121  0.136E+02  0.133E+02
   1.131  0.130E+02  0.127E+02
   1.141  0.137E+02  0.133E+02
   1.151  0.145E+02  0.141E+02
   1.161  0.153E+02  0.149E+02
   1.171  0.169E+02  0.164E+02
   1.181  0.184E+02  0.179E+02
   1.191  0.190E+02  0.186E+02
   1.201  0.202E+02  0.197E+02
   1.211  0.248E+02  0.240E+02
   1.221  0.295E+02  0.283E+02
   1.231  0.335E+02  0.320E+02
   1.241  0.311E+02  0.299E+02
   1.251  0.336E+02  0.323E+02
   1.261  0.384E+02  0.369E+02
   1.271  0.433E+02  0.415E+02
   1.281  0.477E+02  0.457E+02
   1.291  0.303E+02  0.288E+02
   1.301  0.375E+02  0.358E+02
   1.311  0.346E+02  0.329E+02
   1.321  0.325E+02  0.308E+02
   1.331  0.206E+02  0.195E+02
   1.341  0.189E+02  0.180E+02
   1.351  0.273E+02  0.263E+02
   1.361  0.338E+02  0.327E+02
   1.371  0.296E+02  0.288E+02
   1.381  0.255E+02  0.248E+02
   1.391  0.230E+02  0.223E+02
   1.401  0.209E+02  0.203E+02
   1.411  0.188E+02  0.184E+02
   1.421  0.175E+02  0.171E+02
   1.431  0.241E+02  0.236E+02
   1.441  0.204E+02  0.200E+02
   1.451  0.167E+02  0.163E+02
   1.461  0.130E+02  0.127E+02
   1.471  0.987E+01  0.965E+01
   1.481  0.937E+01  0.915E+01
   1.491  0.966E+01  0.943E+01
   1.501  0.178E+02  0.174E+02
   1.511  0.249E+02  0.242E+02
   1.521  0.321E+02  0.313E+02
   1.531  0.393E+02  0.384E+02
   1.541  0.171E+02  0.167E+02
   1.551  0.170E+02  0.165E+02
   1.561  0.296E+02  0.289E+02
   1.571  0.251E+02  0.246E+02
   1.581  0.207E+02  0.202E+02
   1.591  0.210E+02  0.204E+02
   1.601  0.220E+02  0.214E+02
   1.611  0.231E+02  0.225E+02
   1.621  0.186E+02  0.181E+02
   1.631  0.188E+02  0.183E+02
   1.641  0.190E+02  0.184E+02
   1.651  0.192E+02  0.186E+02
   1.661  0.195E+02  0.189E+02
   1.671  0.196E+02  0.190E+02
   1.681  0.196E+02  0.190E+02
   1.691  0.196E+02  0.190E+02
   1.701  0.193E+02  0.187E+02
   1.711  0.189E+02  0.183E+02
   1.721  0.185E+02  0.179E+02
   1.731  0.130E+02  0.126E+02
   1.741  0.122E+02  0.118E+02
   1.751  0.114E+02  0.109E+02
   1.761  0.105E+02  0.101E+02
   1.771  0.968E+01  0.929E+01
   1.781  0.213E+02  0.203E+02
   1.791  0.180E+02  0.172E+02
   1.801  0.147E+02  0.141E+02
   1.811  0.114E+02  0.109E+02
   1.821  0.808E+01  0.775E+01
   1.831  0.479E+01  0.457E+01
   1.841  0.377E+01  0.359E+01
   1.851  0.291E+01  0.278E+01
   1.861  0.216E+01  0.206E+01
   1.871  0.174E+01  0.166E+01
   1.881  0.132E+01  0.126E+01
   1.891  0.909E+00  0.867E+00
   1.901  0.494E+00  0.471E+00
   1.911  0.782E-01  0.746E-01
   1.921  0.000E+00  0.000E+00
